Quasi static measurement routine
Tip parameters (shape,radius, material...) 
26.08.2022

Piezo position[nm]	MEMS displ.[nm]	Time[ms]	Cap [pf]	Temp [°C]	Rh [%]
eoh
1,834074	0,050300	0,160	-0,135050	22,730000	57,755000
1,835065	-0,215923	0,260	-0,135156	22,730000	57,755000
1,836084	-0,274812	0,360	-0,135180	22,730000	57,755000
1,837093	-0,050300	0,461	-0,135090	22,730000	57,755000
1,838094	0,107962	0,561	-0,135027	22,730000	57,755000
1,839039	-0,341061	0,661	-0,135206	22,730000	57,755000
1,840106	-0,149674	0,761	-0,135130	22,730000	57,755000
1,841086	0,274812	0,861	-0,134961	22,740000	57,730000
1,842091	0,266224	0,961	-0,134964	22,740000	57,730000
1,843044	0,058888	1,062	-0,135047	22,740000	57,730000
1,844080	-0,224511	1,162	-0,135160	22,740000	57,730000
1,845030	-0,033125	1,263	-0,135083	22,740000	57,730000
1,846017	0,050300	1,363	-0,135050	22,740000	57,730000
1,847044	-0,024537	1,463	-0,135080	22,740000	57,730000
1,848085	0,125137	1,564	-0,135021	22,740000	57,730000
1,849033	-0,249048	1,664	-0,135169	22,740000	57,730000
1,850043	-0,066249	1,764	-0,135097	22,740000	57,730000
1,851067	0,083425	1,864	-0,135037	22,740000	57,730000
1,852081	-0,024537	1,964	-0,135080	22,740000	57,730000
1,853043	0,125137	2,065	-0,135021	22,740000	57,730000
1,854046	0,008588	2,165	-0,135067	22,740000	57,730000
1,855055	0,008588	2,266	-0,135067	22,740000	57,730000
1,856068	-0,116550	2,366	-0,135117	22,740000	57,730000
1,857063	-0,066249	2,467	-0,135097	22,740000	57,730000
1,858060	-0,132498	2,567	-0,135123	22,740000	57,730000
1,859127	0,100601	2,667	-0,135030	22,740000	57,730000
1,860094	-0,198748	2,767	-0,135149	22,740000	57,730000
1,861076	-0,099374	2,867	-0,135110	22,730000	57,770000
1,862069	0,041712	2,967	-0,135054	22,730000	57,770000
1,863092	-0,215923	3,067	-0,135156	22,730000	57,770000
1,864047	-0,107962	3,168	-0,135113	22,730000	57,770000
1,865055	-0,050300	3,268	-0,135090	22,730000	57,770000
1,866083	-0,033125	3,368	-0,135083	22,730000	57,770000
1,867078	0,017176	3,469	-0,135063	22,730000	57,770000
1,868093	-0,041712	3,569	-0,135087	22,730000	57,770000
1,869034	-0,057661	3,670	-0,135093	22,730000	57,770000
1,870035	0,000000	3,770	-0,135070	22,730000	57,770000
1,870999	-0,257636	3,870	-0,135173	22,730000	57,770000
1,872060	0,132498	3,970	-0,135018	22,730000	57,770000
1,873102	-0,123911	4,071	-0,135120	22,730000	57,770000
1,874101	-0,041712	4,171	-0,135087	22,730000	57,770000
1,875066	-0,066249	4,271	-0,135097	22,730000	57,770000
1,876047	0,000000	4,372	-0,135070	22,730000	57,770000
1,877056	-0,290760	4,472	-0,135186	22,730000	57,770000
1,878038	0,050300	4,572	-0,135050	22,730000	57,770000
1,879072	-0,008588	4,672	-0,135074	22,730000	57,770000
1,880080	-0,008588	4,772	-0,135074	22,730000	57,770000
1,881061	-0,099374	4,872	-0,135110	22,730000	57,770000
1,882063	-0,215923	4,973	-0,135156	22,730000	57,770000
1,883073	-0,083425	5,073	-0,135104	22,730000	57,770000
1,884066	-0,066249	5,173	-0,135097	22,730000	57,770000
1,885091	-0,116550	5,274	-0,135117	22,730000	57,770000
1,886042	-0,149674	5,374	-0,135130	22,730000	57,770000
1,887078	-0,066249	5,474	-0,135097	22,730000	57,770000
1,888071	-0,207336	5,574	-0,135153	22,730000	57,770000
1,889049	0,050300	5,674	-0,135050	22,730000	57,770000
1,890022	-0,123911	5,775	-0,135120	22,730000	57,770000
1,891047	-0,224511	5,875	-0,135160	22,730000	57,770000
1,892091	0,008588	5,975	-0,135067	22,730000	57,770000
1,893096	0,365598	6,075	-0,134925	22,730000	57,770000
1,894036	-0,083425	6,175	-0,135104	22,730000	57,770000
1,895007	-0,274812	6,275	-0,135180	22,730000	57,770000
1,896111	-0,116550	6,375	-0,135117	22,730000	57,770000
1,897048	-0,041712	6,475	-0,135087	22,730000	57,770000
1,898048	0,074837	6,575	-0,135041	22,730000	57,770000
1,899048	0,008588	6,675	-0,135067	22,730000	57,770000
1,900057	-0,033125	6,775	-0,135083	22,730000	57,770000
1,901036	-0,116550	6,875	-0,135117	22,730000	57,795000
1,902047	0,132498	6,976	-0,135018	22,730000	57,795000
1,903077	0,083425	7,077	-0,135037	22,730000	57,795000
1,904004	-0,066249	7,178	-0,135097	22,730000	57,795000
1,904990	-0,174211	7,278	-0,135140	22,730000	57,795000
1,906043	-0,141086	7,378	-0,135126	22,730000	57,795000
1,907074	-0,224511	7,478	-0,135160	22,730000	57,795000
1,908086	-0,215923	7,578	-0,135156	22,730000	57,795000
1,909017	0,033125	7,678	-0,135057	22,730000	57,795000
1,910066	-0,191387	7,778	-0,135146	22,730000	57,795000
1,911034	-0,116550	7,879	-0,135117	22,730000	57,795000
1,912034	-0,116550	7,979	-0,135117	22,730000	57,795000
1,913124	-0,240460	8,079	-0,135166	22,730000	57,795000
1,914072	-0,149674	8,179	-0,135130	22,730000	57,795000
1,915087	-0,123911	8,280	-0,135120	22,730000	57,795000
1,916070	-0,157035	8,380	-0,135133	22,730000	57,795000
1,917030	-0,240460	8,480	-0,135166	22,730000	57,795000
1,918078	-0,116550	8,580	-0,135117	22,730000	57,795000
1,919089	-0,224511	8,680	-0,135160	22,730000	57,795000
1,920156	-0,174211	8,780	-0,135140	22,730000	57,795000
1,921085	0,017176	8,881	-0,135063	22,730000	57,770000
1,922011	-0,174211	8,981	-0,135140	22,730000	57,770000
1,923062	-0,299348	9,082	-0,135189	22,730000	57,770000
1,924018	-0,149674	9,182	-0,135130	22,730000	57,770000
1,925036	0,174211	9,282	-0,135001	22,730000	57,770000
1,926076	-0,041712	9,382	-0,135087	22,730000	57,770000
1,927081	0,141086	9,483	-0,135014	22,730000	57,770000
1,928045	-0,041712	9,583	-0,135087	22,730000	57,770000
1,929016	0,199974	9,683	-0,134991	22,730000	57,770000
1,930051	-0,233099	9,783	-0,135163	22,730000	57,770000
1,931051	-0,099374	9,884	-0,135110	22,730000	57,770000
1,932055	-0,198748	9,985	-0,135149	22,730000	57,770000
1,933005	-0,141086	10,086	-0,135126	22,730000	57,770000
1,934040	-0,215923	10,186	-0,135156	22,730000	57,770000
1,935024	-0,207336	10,286	-0,135153	22,730000	57,770000
1,936027	-0,083425	10,387	-0,135104	22,730000	57,770000
1,937034	-0,207336	10,487	-0,135153	22,730000	57,770000
1,938028	-0,390134	10,587	-0,135226	22,730000	57,770000
1,938984	0,008588	10,687	-0,135067	22,730000	57,770000
1,940072	-0,224511	10,788	-0,135160	22,730000	57,770000
1,941072	-0,141086	10,889	-0,135126	22,730000	57,770000
1,942034	-0,092013	10,990	-0,135107	22,730000	57,770000
1,943083	-0,198748	11,091	-0,135149	22,730000	57,770000
1,944064	-0,015949	11,191	-0,135077	22,730000	57,770000
1,945057	-0,341061	11,291	-0,135206	22,730000	57,770000
1,946054	-0,165623	11,392	-0,135136	22,730000	57,770000
1,946990	0,266224	11,492	-0,134964	22,730000	57,770000
1,948088	-0,191387	11,592	-0,135146	22,730000	57,770000
1,949066	-0,266224	11,693	-0,135176	22,730000	57,770000
1,950092	-0,282173	11,793	-0,135183	22,730000	57,770000
1,951043	0,000000	11,894	-0,135070	22,730000	57,770000
1,952043	-0,240460	11,994	-0,135166	22,730000	57,770000
1,953065	-0,099374	12,094	-0,135110	22,730000	57,770000
1,954040	0,008588	12,194	-0,135067	22,730000	57,770000
1,955064	-0,123911	12,295	-0,135120	22,730000	57,770000
1,956113	-0,290760	12,396	-0,135186	22,730000	57,770000
1,957076	-0,174211	12,497	-0,135140	22,730000	57,770000
1,958052	-0,266224	12,598	-0,135176	22,730000	57,770000
1,959068	-0,249048	12,698	-0,135169	22,730000	57,770000
1,959964	-0,299348	12,798	-0,135189	22,730000	57,770000
1,961073	-0,033125	12,898	-0,135083	22,730000	57,755000
1,962087	-0,224511	12,998	-0,135160	22,730000	57,755000
1,963135	-0,132498	13,098	-0,135123	22,730000	57,755000
1,964056	-0,332473	13,198	-0,135203	22,730000	57,755000
1,964999	-0,282173	13,299	-0,135183	22,730000	57,755000
1,966111	-0,191387	13,399	-0,135146	22,730000	57,755000
1,967080	-0,165623	13,499	-0,135136	22,730000	57,755000
1,968022	-0,473559	13,600	-0,135259	22,730000	57,755000
1,969046	-0,215923	13,700	-0,135156	22,730000	57,755000
1,970078	-0,107962	13,801	-0,135113	22,730000	57,755000
1,971038	-0,057661	13,901	-0,135093	22,730000	57,755000
1,972036	-0,165623	14,002	-0,135136	22,730000	57,755000
1,973091	-0,215923	14,102	-0,135156	22,730000	57,755000
1,974041	-0,207336	14,202	-0,135153	22,730000	57,755000
1,974990	-0,240460	14,303	-0,135166	22,730000	57,755000
1,976078	-0,249048	14,403	-0,135169	22,730000	57,755000
1,977047	-0,282173	14,503	-0,135183	22,730000	57,755000
1,978056	-0,233099	14,603	-0,135163	22,730000	57,755000
1,979018	-0,107962	14,703	-0,135113	22,730000	57,755000
1,980053	-0,083425	14,804	-0,135104	22,730000	57,780000
1,981028	-0,182799	14,904	-0,135143	22,730000	57,780000
1,982099	-0,282173	15,004	-0,135183	22,730000	57,780000
1,983052	-0,456383	15,105	-0,135252	22,730000	57,780000
1,984047	-0,290760	15,205	-0,135186	22,730000	57,780000
1,985061	-0,015949	15,305	-0,135077	22,730000	57,780000
1,986044	-0,257636	15,405	-0,135173	22,730000	57,780000
1,987037	-0,141086	15,506	-0,135126	22,730000	57,780000
1,988100	-0,323885	15,606	-0,135199	22,730000	57,780000
1,988989	-0,066249	15,706	-0,135097	22,730000	57,780000
1,990069	-0,165623	15,806	-0,135136	22,730000	57,780000
1,991013	-0,224511	15,907	-0,135160	22,730000	57,780000
1,992060	-0,374185	16,007	-0,135219	22,730000	57,780000
1,993079	-0,307936	16,107	-0,135193	22,730000	57,780000
1,994000	-0,233099	16,207	-0,135163	22,730000	57,780000
1,995017	-0,374185	16,307	-0,135219	22,730000	57,780000
1,996072	-0,282173	16,407	-0,135183	22,730000	57,780000
1,997053	-0,423259	16,507	-0,135239	22,730000	57,780000
1,998047	-0,141086	16,607	-0,135126	22,730000	57,780000
1,999053	-0,307936	16,707	-0,135193	22,730000	57,780000
2,000076	-0,240460	16,807	-0,135166	22,730000	57,770000
2,000992	-0,266224	16,907	-0,135176	22,730000	57,770000
2,002078	-0,415898	17,007	-0,135236	22,730000	57,770000
2,002997	-0,182799	17,107	-0,135143	22,730000	57,770000
2,004046	-0,041712	17,207	-0,135087	22,730000	57,770000
2,005020	0,058888	17,307	-0,135047	22,730000	57,770000
2,006052	-0,266224	17,408	-0,135176	22,730000	57,770000
2,007008	-0,348422	17,508	-0,135209	22,730000	57,770000
2,008031	-0,357010	17,608	-0,135212	22,730000	57,770000
2,009104	-0,191387	17,708	-0,135146	22,730000	57,770000
2,010056	-0,207336	17,808	-0,135153	22,730000	57,770000
2,011015	-0,323885	17,908	-0,135199	22,730000	57,770000
2,012000	0,017176	18,008	-0,135063	22,730000	57,770000
2,013085	-0,182799	18,108	-0,135143	22,730000	57,770000
2,014096	-0,415898	18,208	-0,135236	22,730000	57,770000
2,015084	-0,365598	18,308	-0,135216	22,730000	57,770000
2,016076	-0,215923	18,408	-0,135156	22,730000	57,770000
2,017052	-0,431847	18,508	-0,135242	22,730000	57,770000
2,018033	-0,224511	18,609	-0,135160	22,730000	57,770000
2,019084	-0,174211	18,710	-0,135140	22,730000	57,770000
2,020089	-0,290760	18,810	-0,135186	22,730000	57,770000
2,021090	-0,506684	18,910	-0,135272	22,730000	57,770000
2,022093	-0,107962	19,011	-0,135113	22,730000	57,770000
2,023050	-0,332473	19,112	-0,135203	22,730000	57,770000
2,024061	-0,299348	19,212	-0,135189	22,730000	57,770000
2,025065	-0,141086	19,312	-0,135126	22,730000	57,770000
2,026017	-0,274812	19,412	-0,135180	22,730000	57,770000
2,027038	-0,381546	19,512	-0,135222	22,730000	57,770000
2,028070	-0,323885	19,612	-0,135199	22,730000	57,770000
2,029102	-0,282173	19,713	-0,135183	22,730000	57,770000
2,030077	-0,464971	19,813	-0,135255	22,730000	57,770000
2,031072	-0,083425	19,913	-0,135104	22,730000	57,770000
2,032047	-0,257636	20,013	-0,135173	22,730000	57,770000
2,032999	-0,240460	20,113	-0,135166	22,730000	57,770000
2,034043	-0,116550	20,213	-0,135117	22,730000	57,770000
2,035022	-0,381546	20,313	-0,135222	22,730000	57,770000
2,036024	-0,282173	20,413	-0,135183	22,730000	57,770000
2,037047	-0,357010	20,514	-0,135212	22,730000	57,770000
2,038057	-0,739783	20,615	-0,135365	22,730000	57,770000
2,039011	-0,123911	20,715	-0,135120	22,730000	57,770000
2,040037	-0,597470	20,815	-0,135308	22,710000	57,750000
2,041059	-0,057661	20,915	-0,135093	22,710000	57,750000
2,042024	-0,116550	21,015	-0,135117	22,710000	57,750000
2,043004	-0,240460	21,115	-0,135166	22,710000	57,750000
2,044028	-0,423259	21,215	-0,135239	22,710000	57,750000
2,045010	-0,315297	21,316	-0,135196	22,710000	57,750000
2,046040	-0,440435	21,416	-0,135246	22,710000	57,750000
2,047065	-0,266224	21,517	-0,135176	22,710000	57,750000
2,048058	-0,315297	21,617	-0,135196	22,710000	57,750000
2,049013	-0,341061	21,717	-0,135206	22,710000	57,750000
2,050012	-0,266224	21,817	-0,135176	22,710000	57,750000
2,051044	-0,233099	21,917	-0,135163	22,710000	57,750000
2,052038	-0,341061	22,017	-0,135206	22,710000	57,750000
2,053057	-0,323885	22,117	-0,135199	22,710000	57,750000
2,054055	-0,307936	22,217	-0,135193	22,710000	57,750000
2,055099	-0,015949	22,317	-0,135077	22,710000	57,750000
2,055994	-0,233099	22,417	-0,135163	22,710000	57,750000
2,057044	-0,257636	22,518	-0,135173	22,710000	57,750000
2,058039	-0,614645	22,619	-0,135315	22,710000	57,750000
2,059013	-0,249048	22,719	-0,135169	22,710000	57,750000
2,060031	-0,715246	22,820	-0,135355	22,730000	57,740000
2,061008	-0,523860	22,920	-0,135279	22,730000	57,740000
2,062012	-0,041712	23,020	-0,135087	22,730000	57,740000
2,063037	-0,266224	23,120	-0,135176	22,730000	57,740000
2,064060	-0,332473	23,221	-0,135203	22,730000	57,740000
2,065032	-0,407310	23,322	-0,135232	22,730000	57,740000
2,066000	-0,266224	23,422	-0,135176	22,730000	57,740000
2,067080	-0,431847	23,522	-0,135242	22,730000	57,740000
2,068006	-0,299348	23,623	-0,135189	22,730000	57,740000
2,069021	-0,290760	23,723	-0,135186	22,730000	57,740000
2,070030	-0,249048	23,823	-0,135169	22,730000	57,740000
2,071061	-0,590109	23,923	-0,135305	22,730000	57,740000
2,072027	-0,464971	24,024	-0,135255	22,730000	57,740000
2,073018	-0,198748	24,125	-0,135149	22,730000	57,740000
2,074022	-0,374185	24,225	-0,135219	22,730000	57,740000
2,075006	-0,482147	24,325	-0,135262	22,730000	57,740000
2,076006	-0,341061	24,425	-0,135206	22,730000	57,740000
2,077020	-0,398722	24,526	-0,135229	22,730000	57,740000
2,078044	-0,341061	24,626	-0,135206	22,730000	57,740000
2,079017	-0,482147	24,726	-0,135262	22,730000	57,740000
2,080031	-0,290760	24,826	-0,135186	22,720000	57,765000
2,081028	-0,207336	24,926	-0,135153	22,720000	57,765000
2,082081	-0,440435	25,027	-0,135246	22,720000	57,765000
2,083064	-0,407310	25,127	-0,135232	22,720000	57,765000
2,084089	-0,590109	25,227	-0,135305	22,720000	57,765000
2,085032	-0,374185	25,327	-0,135219	22,720000	57,765000
2,086107	-0,680895	25,427	-0,135341	22,720000	57,765000
2,087049	-0,490735	25,527	-0,135266	22,720000	57,765000
2,088075	-0,415898	25,628	-0,135236	22,720000	57,765000
2,089065	-0,341061	25,728	-0,135206	22,720000	57,765000
2,090023	-0,523860	25,828	-0,135279	22,720000	57,765000
2,091027	-0,299348	25,928	-0,135189	22,720000	57,765000
2,092058	0,241687	26,028	-0,134974	22,720000	57,765000
2,093075	-0,323885	26,128	-0,135199	22,720000	57,765000
2,094027	-0,415898	26,228	-0,135236	22,720000	57,765000
2,095045	-0,473559	26,328	-0,135259	22,720000	57,765000
2,096022	-0,266224	26,428	-0,135176	22,720000	57,765000
2,097048	-0,407310	26,528	-0,135232	22,720000	57,765000
2,098024	-0,374185	26,628	-0,135219	22,720000	57,765000
2,099128	-0,548396	26,728	-0,135289	22,720000	57,765000
2,100025	-0,315297	26,828	-0,135196	22,720000	57,765000
2,101048	-0,482147	26,928	-0,135262	22,720000	57,765000
2,102042	-0,440435	27,029	-0,135246	22,720000	57,765000
2,103042	-0,715246	27,129	-0,135355	22,720000	57,765000
2,104130	-0,282173	27,229	-0,135183	22,720000	57,765000
2,105032	-0,341061	27,329	-0,135206	22,720000	57,765000
2,106006	-0,407310	27,429	-0,135232	22,720000	57,765000
2,107035	-0,806032	27,529	-0,135391	22,720000	57,765000
2,108075	-0,381546	27,629	-0,135222	22,720000	57,765000
2,109071	-0,390134	27,729	-0,135226	22,720000	57,765000
2,110091	-0,464971	27,829	-0,135255	22,720000	57,765000
2,110968	-0,482147	27,930	-0,135262	22,720000	57,765000
2,112047	-0,374185	28,031	-0,135219	22,720000	57,765000
2,113063	-0,381546	28,131	-0,135222	22,720000	57,765000
2,114044	-0,423259	28,231	-0,135239	22,720000	57,765000
2,115058	-0,506684	28,331	-0,135272	22,720000	57,765000
2,116030	-0,307936	28,432	-0,135193	22,720000	57,765000
2,117044	-0,456383	28,532	-0,135252	22,720000	57,765000
2,118013	-0,548396	28,632	-0,135289	22,720000	57,765000
2,119102	-0,689483	28,732	-0,135345	22,720000	57,765000
2,120040	-0,407310	28,832	-0,135232	22,720000	57,750000
2,121077	-0,464971	28,933	-0,135255	22,720000	57,750000
2,122063	-0,755732	29,034	-0,135371	22,720000	57,750000
2,123042	-0,572933	29,134	-0,135298	22,720000	57,750000
2,124040	-0,515272	29,234	-0,135275	22,720000	57,750000
2,125024	-0,341061	29,334	-0,135206	22,720000	57,750000
2,126070	-0,365598	29,434	-0,135216	22,720000	57,750000
2,127082	-0,664946	29,534	-0,135335	22,720000	57,750000
2,128033	-0,572933	29,635	-0,135298	22,720000	57,750000
2,128987	-0,348422	29,736	-0,135209	22,720000	57,750000
2,130027	-0,390134	29,836	-0,135226	22,720000	57,750000
2,131029	-0,656358	29,936	-0,135332	22,720000	57,750000
2,132008	-0,498096	30,036	-0,135269	22,720000	57,750000
2,133022	-0,739783	30,136	-0,135365	22,720000	57,750000
2,134066	-0,456383	30,236	-0,135252	22,720000	57,750000
2,135073	-0,572933	30,337	-0,135298	22,720000	57,750000
2,136025	-0,731195	30,437	-0,135361	22,720000	57,750000
2,137038	-0,341061	30,537	-0,135206	22,720000	57,750000
2,138007	-0,440435	30,637	-0,135246	22,720000	57,750000
2,139020	-0,532447	30,737	-0,135282	22,720000	57,750000
2,140077	-0,440435	30,838	-0,135246	22,720000	57,750000
2,141077	-0,715246	30,938	-0,135355	22,720000	57,750000
2,142080	-0,680895	31,039	-0,135341	22,720000	57,750000
2,143042	-0,614645	31,139	-0,135315	22,720000	57,750000
2,144070	-0,755732	31,239	-0,135371	22,720000	57,750000
2,145058	-0,539808	31,339	-0,135285	22,720000	57,750000
2,145993	-0,572933	31,440	-0,135298	22,720000	57,750000
2,147018	-0,523860	31,541	-0,135279	22,720000	57,750000
2,148014	-0,715246	31,642	-0,135355	22,720000	57,750000
2,149004	-0,664946	31,743	-0,135335	22,720000	57,750000
2,150073	-0,614645	31,844	-0,135315	22,720000	57,750000
2,151091	-0,473559	31,944	-0,135259	22,720000	57,750000
2,152073	-0,572933	32,044	-0,135298	22,720000	57,750000
2,153037	-0,647770	32,144	-0,135328	22,720000	57,750000
2,154022	-0,556984	32,244	-0,135292	22,720000	57,750000
2,155060	-0,656358	32,344	-0,135332	22,720000	57,750000
2,156019	-0,673534	32,445	-0,135338	22,720000	57,750000
2,157092	-0,556984	32,545	-0,135292	22,720000	57,750000
2,158023	-0,498096	32,646	-0,135269	22,720000	57,750000
2,159054	-0,556984	32,747	-0,135292	22,720000	57,750000
2,160025	-0,790083	32,847	-0,135385	22,730000	57,755000
2,161007	-0,165623	32,948	-0,135136	22,730000	57,755000
2,162032	-0,440435	33,048	-0,135246	22,730000	57,755000
2,163012	-0,556984	33,148	-0,135292	22,730000	57,755000
2,164003	-0,523860	33,248	-0,135279	22,730000	57,755000
2,165008	-0,498096	33,348	-0,135269	22,730000	57,755000
2,166053	-0,739783	33,448	-0,135365	22,730000	57,755000
2,167004	-0,473559	33,548	-0,135259	22,730000	57,755000
2,167999	-0,449022	33,648	-0,135249	22,730000	57,755000
2,169029	-0,572933	33,748	-0,135298	22,730000	57,755000
2,170069	-0,606058	33,848	-0,135312	22,730000	57,755000
2,171073	-0,647770	33,948	-0,135328	22,730000	57,755000
2,171965	-0,722607	34,048	-0,135358	22,730000	57,755000
2,173040	-0,407310	34,148	-0,135232	22,730000	57,755000
2,174008	-0,498096	34,248	-0,135269	22,730000	57,755000
2,175004	-0,431847	34,348	-0,135242	22,730000	57,755000
2,176037	-0,664946	34,448	-0,135335	22,730000	57,755000
2,177011	-0,548396	34,549	-0,135289	22,730000	57,755000
2,178077	-0,830569	34,649	-0,135401	22,730000	57,755000
2,178994	-0,548396	34,749	-0,135289	22,730000	57,755000
2,179995	-0,673534	34,850	-0,135338	22,740000	57,715000
2,181037	-0,515272	34,950	-0,135275	22,740000	57,715000
2,181994	-0,532447	35,050	-0,135282	22,740000	57,715000
2,183086	-0,539808	35,150	-0,135285	22,740000	57,715000
2,184023	-0,748371	35,250	-0,135368	22,740000	57,715000
2,185047	-0,631821	35,350	-0,135322	22,740000	57,715000
2,186037	-0,415898	35,451	-0,135236	22,740000	57,715000
2,187007	-0,623233	35,551	-0,135318	22,740000	57,715000
2,188050	-0,572933	35,651	-0,135298	22,740000	57,715000
2,189034	-0,715246	35,751	-0,135355	22,740000	57,715000
2,189988	-0,764320	35,851	-0,135375	22,740000	57,715000
2,191084	-0,456383	35,951	-0,135252	22,740000	57,715000
2,192093	-0,947118	36,051	-0,135447	22,740000	57,715000
2,193001	-0,748371	36,151	-0,135368	22,740000	57,715000
2,194081	-0,764320	36,251	-0,135375	22,740000	57,715000
2,195028	-0,556984	36,351	-0,135292	22,740000	57,715000
2,195999	-0,722607	36,451	-0,135358	22,740000	57,715000
2,196982	-0,673534	36,551	-0,135338	22,740000	57,715000
2,198059	-0,689483	36,652	-0,135345	22,740000	57,715000
2,199075	-0,673534	36,752	-0,135338	22,740000	57,715000
2,200022	-0,797444	36,852	-0,135388	22,720000	57,735000
2,201020	-0,689483	36,952	-0,135345	22,720000	57,735000
2,202033	-0,647770	37,053	-0,135328	22,720000	57,735000
2,203040	-0,572933	37,153	-0,135298	22,720000	57,735000
2,204033	-0,797444	37,253	-0,135388	22,720000	57,735000
2,204996	-0,748371	37,353	-0,135368	22,720000	57,735000
2,206011	-0,464971	37,453	-0,135255	22,720000	57,735000
2,206986	-0,880869	37,553	-0,135421	22,720000	57,735000
2,208039	-0,464971	37,653	-0,135255	22,720000	57,735000
2,209015	-0,490735	37,753	-0,135266	22,720000	57,735000
2,210016	-0,539808	37,853	-0,135285	22,720000	57,735000
2,211007	-0,565572	37,953	-0,135295	22,720000	57,735000
2,212080	-0,515272	38,053	-0,135275	22,720000	57,735000
2,213012	-0,357010	38,153	-0,135212	22,720000	57,735000
2,214119	-0,772908	38,254	-0,135378	22,720000	57,735000
2,215044	-0,814620	38,354	-0,135395	22,720000	57,735000
2,216005	-0,790083	38,454	-0,135385	22,720000	57,735000
2,217062	-0,689483	38,555	-0,135345	22,720000	57,735000
2,218026	-0,689483	38,655	-0,135345	22,720000	57,735000
2,219038	-0,706658	38,755	-0,135352	22,720000	57,735000
2,220080	-0,680895	38,855	-0,135341	22,720000	57,735000
2,221078	-0,781495	38,955	-0,135381	22,720000	57,735000
2,222029	-0,856332	39,055	-0,135411	22,720000	57,735000
2,223009	-0,772908	39,155	-0,135378	22,720000	57,735000
2,224049	-0,647770	39,255	-0,135328	22,720000	57,735000
2,225007	-0,790083	39,355	-0,135385	22,720000	57,735000
2,226009	-0,523860	39,455	-0,135279	22,720000	57,735000
2,227016	-0,506684	39,556	-0,135272	22,720000	57,735000
2,228029	-0,623233	39,656	-0,135318	22,720000	57,735000
2,228996	-0,764320	39,756	-0,135375	22,720000	57,735000
2,230027	-0,839157	39,856	-0,135404	22,720000	57,735000
2,231061	-0,856332	39,956	-0,135411	22,720000	57,735000
2,232052	-0,556984	40,056	-0,135292	22,720000	57,735000
2,233019	-0,748371	40,156	-0,135368	22,720000	57,735000
2,234003	-0,722607	40,256	-0,135358	22,720000	57,735000
2,234947	-0,572933	40,356	-0,135298	22,720000	57,735000
2,236065	-0,880869	40,456	-0,135421	22,720000	57,735000
2,237006	-0,639182	40,556	-0,135325	22,720000	57,735000
2,238082	-0,656358	40,656	-0,135332	22,720000	57,735000
2,238977	-0,523860	40,756	-0,135279	22,720000	57,735000
2,240018	-0,748371	40,856	-0,135368	22,730000	57,770000
2,241048	-0,739783	40,956	-0,135365	22,730000	57,770000
2,241995	-0,781495	41,057	-0,135381	22,730000	57,770000
2,243017	-0,748371	41,157	-0,135368	22,730000	57,770000
2,244014	-0,680895	41,257	-0,135341	22,730000	57,770000
2,245026	-0,623233	41,357	-0,135318	22,730000	57,770000
2,246028	-0,706658	41,457	-0,135352	22,730000	57,770000
2,247041	-0,748371	41,557	-0,135368	22,730000	57,770000
2,248037	-0,839157	41,657	-0,135404	22,730000	57,770000
2,249030	-0,647770	41,757	-0,135328	22,730000	57,770000
2,250012	-0,506684	41,857	-0,135272	22,730000	57,770000
2,251071	-0,739783	41,957	-0,135365	22,730000	57,770000
2,252011	-0,664946	42,057	-0,135335	22,730000	57,770000
2,253098	-0,947118	42,157	-0,135447	22,730000	57,770000
2,253957	-0,748371	42,257	-0,135368	22,730000	57,770000
2,255043	-0,748371	42,357	-0,135368	22,730000	57,770000
2,255976	-0,790083	42,457	-0,135385	22,730000	57,770000
2,257044	-1,013368	42,557	-0,135474	22,730000	57,770000
2,257999	-0,830569	42,657	-0,135401	22,730000	57,770000
2,258976	-1,105380	42,757	-0,135510	22,730000	57,770000
2,260053	-0,581521	42,857	-0,135302	22,710000	57,725000
2,261024	-1,039131	42,957	-0,135484	22,710000	57,725000
2,262100	-0,390134	43,057	-0,135226	22,710000	57,725000
2,263032	-0,456383	43,157	-0,135252	22,710000	57,725000
2,264017	-0,449022	43,257	-0,135249	22,710000	57,725000
2,265017	-0,997419	43,357	-0,135467	22,710000	57,725000
2,266024	-0,532447	43,457	-0,135282	22,710000	57,725000
2,267067	-0,680895	43,557	-0,135341	22,710000	57,725000
2,268062	-0,931170	43,657	-0,135441	22,710000	57,725000
2,269021	-0,680895	43,757	-0,135341	22,710000	57,725000
2,270028	-0,814620	43,857	-0,135395	22,710000	57,725000
2,271077	-0,680895	43,957	-0,135341	22,710000	57,725000
2,272016	-0,764320	44,057	-0,135375	22,710000	57,725000
2,273052	-0,797444	44,158	-0,135388	22,710000	57,725000
2,274055	-0,964294	44,258	-0,135454	22,710000	57,725000
2,275024	-0,706658	44,358	-0,135352	22,710000	57,725000
2,276064	-0,905406	44,458	-0,135431	22,710000	57,725000
2,277041	-0,880869	44,559	-0,135421	22,710000	57,725000
2,278087	-0,856332	44,659	-0,135411	22,710000	57,725000
2,279089	-1,063668	44,759	-0,135494	22,710000	57,725000
2,280015	-0,806032	44,860	-0,135391	22,740000	57,740000
2,281065	-0,931170	44,960	-0,135441	22,740000	57,740000
2,281995	-0,880869	45,060	-0,135421	22,740000	57,740000
2,283023	-1,088205	45,160	-0,135503	22,740000	57,740000
2,284017	-0,772908	45,260	-0,135378	22,740000	57,740000
2,285097	-1,030543	45,360	-0,135480	22,740000	57,740000
2,286056	-0,440435	45,460	-0,135246	22,740000	57,740000
2,287053	-1,096793	45,561	-0,135507	22,740000	57,740000
2,288030	-1,163042	45,661	-0,135533	22,740000	57,740000
2,289051	-0,722607	45,761	-0,135358	22,740000	57,740000
2,290016	-0,872281	45,861	-0,135417	22,740000	57,740000
2,290998	-0,856332	45,961	-0,135411	22,740000	57,740000
2,292055	-0,931170	46,061	-0,135441	22,740000	57,740000
2,293037	-1,039131	46,161	-0,135484	22,740000	57,740000
2,293999	-0,698070	46,261	-0,135348	22,740000	57,740000
2,295064	-0,913994	46,361	-0,135434	22,740000	57,740000
2,296020	-0,997419	46,462	-0,135467	22,740000	57,740000
2,296981	-0,997419	46,562	-0,135467	22,740000	57,740000
2,298032	-0,739783	46,662	-0,135365	22,740000	57,740000
2,299059	-0,988831	46,762	-0,135464	22,740000	57,740000
2,300002	-1,006007	46,863	-0,135471	22,740000	57,740000
2,301023	-1,088205	46,964	-0,135503	22,740000	57,740000
2,302015	-0,856332	47,064	-0,135411	22,740000	57,740000
2,303025	-0,955706	47,164	-0,135451	22,740000	57,740000
2,303991	-1,147093	47,264	-0,135527	22,740000	57,740000
2,305047	-1,039131	47,364	-0,135484	22,740000	57,740000
2,306063	-0,947118	47,464	-0,135447	22,740000	57,740000
2,307044	-1,046492	47,564	-0,135487	22,740000	57,740000
2,307996	-1,039131	47,664	-0,135484	22,740000	57,740000
2,309048	-0,947118	47,764	-0,135447	22,740000	57,740000
2,310056	-1,378965	47,864	-0,135619	22,740000	57,740000
2,311037	-1,520051	47,964	-0,135675	22,740000	57,740000
2,311971	-1,213342	48,064	-0,135553	22,740000	57,740000
2,313021	-1,462390	48,165	-0,135652	22,740000	57,740000
2,314103	-1,262416	48,265	-0,135573	22,740000	57,740000
2,315047	-1,063668	48,365	-0,135494	22,740000	57,740000
2,316045	-1,171630	48,465	-0,135537	22,740000	57,740000
2,317058	-0,972882	48,565	-0,135458	22,740000	57,740000
2,318071	-1,163042	48,665	-0,135533	22,740000	57,740000
2,319041	-1,147093	48,765	-0,135527	22,740000	57,740000
2,319972	-1,213342	48,865	-0,135553	22,720000	57,750000
2,321044	-1,163042	48,965	-0,135533	22,720000	57,750000
2,322022	-1,180217	49,065	-0,135540	22,720000	57,750000
2,323001	-1,237879	49,165	-0,135563	22,720000	57,750000
2,324063	-1,312716	49,265	-0,135593	22,720000	57,750000
2,325051	-1,296767	49,365	-0,135586	22,720000	57,750000
2,326084	-1,387553	49,465	-0,135623	22,720000	57,750000
2,327083	-1,378965	49,566	-0,135619	22,720000	57,750000
2,328061	-1,363016	49,666	-0,135613	22,720000	57,750000
2,329041	-1,296767	49,766	-0,135586	22,720000	57,750000
2,330067	-1,429265	49,866	-0,135639	22,720000	57,750000
2,331032	-1,371604	49,966	-0,135616	22,720000	57,750000
2,332054	-1,653777	50,066	-0,135729	22,720000	57,750000
2,333012	-1,528639	50,167	-0,135679	22,720000	57,750000
2,334002	-1,237879	50,267	-0,135563	22,720000	57,750000
2,335074	-1,554403	50,367	-0,135689	22,720000	57,750000
2,336018	-1,702850	50,467	-0,135748	22,720000	57,750000
2,337060	-1,636601	50,568	-0,135722	22,720000	57,750000
2,338014	-70,432730	50,669	-0,163103	22,720000	57,750000
2,339028	-71,496398	50,770	-0,163526	22,720000	57,750000
2,340106	-72,410392	50,870	-0,163890	22,730000	57,715000
2,341069	-72,326967	50,971	-0,163856	22,730000	57,715000
2,342072	-72,883951	51,071	-0,164078	22,730000	57,715000
2,343056	-73,124411	51,171	-0,164174	22,730000	57,715000
2,344039	-72,311018	51,271	-0,163850	22,730000	57,715000
2,345056	-72,326967	51,371	-0,163856	22,730000	57,715000
2,346026	-72,335555	51,471	-0,163860	22,730000	57,715000
2,347086	-72,152756	51,571	-0,163787	22,730000	57,715000
2,348041	-71,769983	51,671	-0,163635	22,730000	57,715000
2,349074	-71,803107	51,771	-0,163648	22,730000	57,715000
2,350080	-71,487810	51,871	-0,163522	22,730000	57,715000
2,351014	-71,538110	51,971	-0,163542	22,730000	57,715000
2,352053	-71,679197	52,071	-0,163599	22,730000	57,715000
2,353015	-71,179874	52,171	-0,163400	22,730000	57,715000
2,354080	-71,022839	52,271	-0,163337	22,730000	57,715000
2,355031	-71,038788	52,372	-0,163344	22,730000	57,715000
2,356033	-70,598353	52,472	-0,163168	22,730000	57,715000
2,357037	-70,516155	52,572	-0,163136	22,730000	57,715000
2,358020	-70,208219	52,672	-0,163013	22,730000	57,715000
2,359031	-70,025420	52,772	-0,162940	22,730000	57,715000
2,360065	-69,950583	52,872	-0,162911	22,730000	57,715000
2,361033	-69,618110	52,972	-0,162778	22,730000	57,715000
2,362005	-69,210800	53,072	-0,162616	22,730000	57,715000
2,363019	-68,720065	53,173	-0,162421	22,730000	57,715000
2,363985	-68,437893	53,273	-0,162309	22,730000	57,715000
2,364999	-68,529905	53,373	-0,162345	22,730000	57,715000
2,366071	-68,329931	53,474	-0,162266	22,730000	57,715000
2,367018	-67,623273	53,575	-0,161984	22,730000	57,715000
2,368009	-67,548436	53,675	-0,161955	22,730000	57,715000
2,369042	-67,125177	53,775	-0,161786	22,730000	57,715000
2,370006	-67,158301	53,876	-0,161799	22,730000	57,715000
2,371029	-66,858953	53,977	-0,161680	22,730000	57,715000
2,372025	-66,160883	54,078	-0,161402	22,730000	57,715000
2,373058	-66,127758	54,178	-0,161389	22,730000	57,715000
2,374017	-65,828410	54,278	-0,161270	22,730000	57,715000
2,374991	-64,972077	54,379	-0,160929	22,730000	57,715000
2,376047	-65,022378	54,479	-0,160949	22,730000	57,715000
2,377041	-64,631016	54,580	-0,160793	22,730000	57,715000
2,378055	-64,473981	54,681	-0,160731	22,730000	57,715000
2,379013	-64,232294	54,781	-0,160635	22,730000	57,715000
2,380028	-63,833572	54,882	-0,160476	22,730000	57,730000
2,381034	-63,492511	54,982	-0,160340	22,730000	57,730000
2,382010	-62,787080	55,082	-0,160060	22,730000	57,730000
2,383044	-62,695067	55,182	-0,160023	22,730000	57,730000
2,384022	-62,063246	55,283	-0,159771	22,730000	57,730000
2,385124	-61,706236	55,384	-0,159629	22,730000	57,730000
2,385985	-61,332051	55,484	-0,159480	22,730000	57,730000
2,387035	-60,933329	55,584	-0,159322	22,730000	57,730000
2,388049	-60,783655	55,685	-0,159262	22,730000	57,730000
2,389032	-60,426645	55,786	-0,159120	22,730000	57,730000
2,390055	-60,110121	55,887	-0,158994	22,730000	57,730000
2,391029	-59,612025	55,987	-0,158796	22,730000	57,730000
2,392056	-58,913955	56,087	-0,158518	22,730000	57,730000
2,393071	-58,863654	56,188	-0,158498	22,730000	57,730000
2,394065	-58,515232	56,288	-0,158359	22,730000	57,730000
2,395042	-58,123871	56,388	-0,158204	22,730000	57,730000
2,396055	-57,824523	56,489	-0,158084	22,730000	57,730000
2,396980	-56,969417	56,589	-0,157744	22,730000	57,730000
2,398057	-56,370721	56,689	-0,157506	22,730000	57,730000
2,399020	-56,412433	56,790	-0,157522	22,730000	57,730000
2,400055	-55,971999	56,890	-0,157347	22,720000	57,765000
2,401044	-55,689826	56,990	-0,157235	22,720000	57,765000
2,402040	-55,132842	57,090	-0,157013	22,720000	57,765000
2,403041	-54,558682	57,191	-0,156785	22,720000	57,765000
2,404080	-54,716944	57,291	-0,156848	22,720000	57,765000
2,405016	-53,470477	57,391	-0,156352	22,720000	57,765000
2,406024	-53,287679	57,491	-0,156279	22,720000	57,765000
2,407067	-53,071755	57,591	-0,156193	22,720000	57,765000
2,408029	-52,739282	57,691	-0,156061	22,720000	57,765000
2,409040	-52,340560	57,791	-0,155902	22,720000	57,765000
2,410054	-51,891538	57,891	-0,155723	22,720000	57,765000
2,411034	-51,858413	57,991	-0,155710	22,720000	57,765000
2,412044	-51,218004	58,091	-0,155455	22,720000	57,765000
2,413116	-51,310017	58,191	-0,155492	22,720000	57,765000
2,414013	-50,429148	58,291	-0,155141	22,720000	57,765000
2,415034	-50,362898	58,391	-0,155115	22,720000	57,765000
2,416009	-50,154336	58,491	-0,155032	22,720000	57,765000
2,417007	-49,605940	58,592	-0,154813	22,720000	57,765000
2,417989	-49,588764	58,692	-0,154807	22,720000	57,765000
2,419035	-49,033007	58,793	-0,154585	22,720000	57,765000
2,420047	-48,749607	58,894	-0,154473	22,720000	57,765000
2,421090	-48,225748	58,994	-0,154264	22,720000	57,765000
2,422051	-48,101837	59,095	-0,154215	22,720000	57,765000
2,423040	-47,685939	59,196	-0,154049	22,720000	57,765000
2,424018	-47,661403	59,296	-0,154040	22,720000	57,765000
2,425038	-46,863958	59,396	-0,153722	22,720000	57,765000
2,426098	-46,605096	59,496	-0,153619	22,720000	57,765000
2,427019	-46,107000	59,597	-0,153421	22,720000	57,765000
2,428044	-45,915613	59,697	-0,153345	22,720000	57,765000
2,429053	-45,384393	59,797	-0,153133	22,720000	57,765000
2,430057	-45,334092	59,898	-0,153113	22,720000	57,765000
2,431064	-44,910833	59,999	-0,152945	22,720000	57,765000
2,432016	-44,369798	60,099	-0,152729	22,720000	57,765000
2,433012	-43,904827	60,199	-0,152544	22,720000	57,765000
2,434019	-43,671728	60,300	-0,152452	22,720000	57,765000
2,435059	-43,522054	60,400	-0,152392	22,720000	57,765000
2,436066	-42,383549	60,501	-0,151939	22,720000	57,765000
2,437041	-42,517274	60,602	-0,151992	22,720000	57,765000
2,438047	-42,268226	60,703	-0,151893	22,720000	57,765000
2,439076	-42,059664	60,803	-0,151810	22,730000	57,730000
2,440050	-41,070833	60,903	-0,151417	22,730000	57,730000
2,441034	-41,095369	61,003	-0,151426	22,730000	57,730000
2,442055	-41,037708	61,104	-0,151403	22,730000	57,730000
2,443063	-40,638986	61,204	-0,151245	22,730000	57,730000
2,444017	-40,165427	61,305	-0,151056	22,730000	57,730000
2,445078	-39,691868	61,405	-0,150868	22,730000	57,730000
2,446019	-39,110347	61,505	-0,150636	22,730000	57,730000
2,447043	-38,661324	61,605	-0,150458	22,730000	57,730000
2,447994	-38,062628	61,705	-0,150219	22,730000	57,730000
2,449070	-38,236838	61,805	-0,150289	22,730000	57,730000
2,450080	-37,455343	61,905	-0,149978	22,730000	57,730000
2,451028	-36,807573	62,005	-0,149720	22,730000	57,730000
2,452014	-36,757273	62,105	-0,149700	22,730000	57,730000
2,453027	-36,167164	62,206	-0,149465	22,730000	57,730000
2,454053	-35,627356	62,306	-0,149250	22,730000	57,730000
2,455038	-35,726729	62,406	-0,149290	22,730000	57,730000
2,456033	-34,696186	62,506	-0,148879	22,730000	57,730000
2,457016	-34,880212	62,606	-0,148953	22,730000	57,730000
2,458054	-34,380889	62,706	-0,148754	22,730000	57,730000
2,459051	-33,882793	62,807	-0,148556	22,730000	57,730000
2,460042	-33,541732	62,907	-0,148420	22,730000	57,730000
2,461084	-32,901323	63,007	-0,148165	22,730000	57,730000
2,462067	-32,568850	63,107	-0,148033	22,730000	57,730000
2,463092	-32,452301	63,208	-0,147986	22,730000	57,730000
2,464002	-32,195892	63,308	-0,147884	22,730000	57,730000
2,465054	-31,646268	63,408	-0,147666	22,730000	57,730000
2,466053	-31,364096	63,508	-0,147553	22,730000	57,730000
2,467077	-30,864773	63,608	-0,147354	22,730000	57,730000
2,467997	-30,666025	63,708	-0,147275	22,730000	57,730000
2,468966	-30,142166	63,808	-0,147067	22,730000	57,730000
2,470051	-29,677195	63,908	-0,146882	22,730000	57,730000
2,471045	-29,327546	64,008	-0,146743	22,730000	57,730000
2,472063	-28,987712	64,108	-0,146607	22,730000	57,730000
2,473060	-28,928824	64,208	-0,146584	22,730000	57,730000
2,474042	-28,305590	64,310	-0,146336	22,730000	57,730000
2,475018	-28,230753	64,410	-0,146306	22,730000	57,730000
2,476100	-27,616108	64,510	-0,146062	22,730000	57,730000
2,476984	-27,292223	64,610	-0,145933	22,730000	57,730000
2,478024	-26,900862	64,710	-0,145777	22,730000	57,730000
2,479061	-26,635865	64,810	-0,145671	22,730000	57,730000
2,480047	-25,995456	64,910	-0,145417	22,730000	57,730000
2,481021	-25,713283	65,010	-0,145304	22,730000	57,730000
2,482015	-25,114587	65,111	-0,145066	22,730000	57,730000
2,483062	-25,156299	65,212	-0,145083	22,730000	57,730000
2,484058	-24,848363	65,312	-0,144960	22,730000	57,730000
2,485017	-23,967494	65,413	-0,144609	22,730000	57,730000
2,486110	-23,967494	65,513	-0,144609	22,730000	57,730000
2,487048	-23,344260	65,613	-0,144361	22,730000	57,730000
2,488025	-23,011787	65,713	-0,144229	22,730000	57,730000
2,489036	-22,164043	65,813	-0,143892	22,730000	57,730000
2,490072	-22,230292	65,913	-0,143918	22,730000	57,730000
2,491063	-21,408311	66,014	-0,143591	22,730000	57,730000
2,492014	-21,507685	66,114	-0,143630	22,730000	57,730000
2,493034	-20,701653	66,214	-0,143310	22,730000	57,730000
2,494048	-20,426841	66,314	-0,143200	22,730000	57,730000
2,495042	-20,318880	66,414	-0,143157	22,730000	57,730000
2,496064	-19,098176	66,514	-0,142671	22,730000	57,730000
2,497023	-19,014751	66,614	-0,142638	22,730000	57,730000
2,498030	-18,831953	66,714	-0,142565	22,730000	57,730000
2,499056	-18,665103	66,814	-0,142499	22,720000	57,725000
2,500058	-17,900783	66,914	-0,142195	22,720000	57,725000
2,501044	-17,751109	67,014	-0,142135	22,720000	57,725000
2,502015	-17,327850	67,115	-0,141967	22,720000	57,725000
2,503037	-16,786815	67,216	-0,141751	22,720000	57,725000
2,504042	-16,446981	67,316	-0,141616	22,720000	57,725000
2,504972	-16,121869	67,417	-0,141487	22,720000	57,725000
2,506032	-15,748911	67,517	-0,141338	22,720000	57,725000
2,507002	-15,174751	67,617	-0,141110	22,720000	57,725000
2,508048	-14,742904	67,717	-0,140938	22,720000	57,725000
2,509050	-14,469319	67,817	-0,140829	22,720000	57,725000
2,510047	-13,346763	67,917	-0,140382	22,720000	57,725000
2,511015	-12,948041	68,017	-0,140224	22,720000	57,725000
2,512064	-12,657281	68,117	-0,140108	22,720000	57,725000
2,513093	-12,150597	68,218	-0,139906	22,720000	57,725000
2,514016	-11,816897	68,318	-0,139773	22,720000	57,725000
2,514994	-11,593613	68,418	-0,139685	22,720000	57,725000
2,516021	-10,770405	68,518	-0,139357	22,720000	57,725000
2,517139	-10,206060	68,618	-0,139132	22,720000	57,725000
2,518040	-9,772986	68,718	-0,138960	22,720000	57,725000
2,519036	-9,499401	68,818	-0,138851	22,730000	57,755000
2,520040	-9,440513	68,918	-0,138828	22,730000	57,755000
2,521033	-9,017254	69,018	-0,138659	22,730000	57,755000
2,522011	-8,843043	69,118	-0,138590	22,730000	57,755000
2,523001	-8,543695	69,218	-0,138471	22,730000	57,755000
2,523987	-7,911874	69,318	-0,138219	22,730000	57,755000
2,525065	-7,579401	69,418	-0,138087	22,730000	57,755000
2,526044	-6,972116	69,519	-0,137845	22,730000	57,755000
2,527037	-6,049535	69,619	-0,137478	22,730000	57,755000
2,528091	-5,991873	69,720	-0,137455	22,730000	57,755000
2,528962	-5,452065	69,821	-0,137240	22,730000	57,755000
2,530046	-5,152717	69,921	-0,137121	22,730000	57,755000
2,531030	-4,387170	70,021	-0,136816	22,730000	57,755000
2,532049	-3,873125	70,121	-0,136612	22,730000	57,755000
2,533025	-4,063285	70,221	-0,136687	22,730000	57,755000
2,534083	-3,274429	70,321	-0,136374	22,730000	57,755000
2,535009	-2,741981	70,421	-0,136162	22,730000	57,755000
2,535967	-2,252473	70,521	-0,135967	22,730000	57,755000
2,537031	-2,077036	70,621	-0,135897	22,730000	57,755000
2,538069	-1,561764	70,721	-0,135692	22,730000	57,755000
2,539021	-1,387553	70,821	-0,135623	22,730000	57,755000
2,540030	-0,149674	70,921	-0,135130	22,730000	57,755000
2,541063	-0,307936	71,022	-0,135193	22,730000	57,755000
2,542042	0,274812	71,122	-0,134961	22,730000	57,755000
2,543064	0,440435	71,222	-0,134895	22,730000	57,755000
2,543965	1,462390	71,323	-0,134488	22,730000	57,755000
2,545083	1,321304	71,424	-0,134544	22,730000	57,755000
2,545983	1,886876	71,525	-0,134319	22,730000	57,755000
2,547078	2,310135	71,625	-0,134151	22,730000	57,755000
2,548013	2,626659	71,725	-0,134025	22,730000	57,755000
2,549028	3,265841	71,826	-0,133771	22,730000	57,755000
2,550096	3,490352	71,926	-0,133681	22,730000	57,755000
2,551061	3,989675	72,026	-0,133482	22,730000	57,755000
2,552036	4,238723	72,127	-0,133383	22,730000	57,755000
2,552986	4,687745	72,227	-0,133205	22,730000	57,755000
2,554025	5,368640	72,328	-0,132934	22,730000	57,755000
2,555029	5,584563	72,428	-0,132848	22,730000	57,755000
2,556015	6,033586	72,528	-0,132669	22,730000	57,755000
2,557090	6,615107	72,629	-0,132438	22,730000	57,755000
2,558030	7,080078	72,729	-0,132252	22,730000	57,755000
2,559044	7,421139	72,830	-0,132117	22,730000	57,700000
2,559999	7,837037	72,930	-0,131951	22,730000	57,700000
2,561014	8,218583	73,030	-0,131799	22,730000	57,700000
2,562013	8,552283	73,130	-0,131667	22,730000	57,700000
2,563055	9,108040	73,231	-0,131445	22,730000	57,700000
2,564004	9,981548	73,331	-0,131098	22,730000	57,700000
2,565015	9,981548	73,431	-0,131098	22,730000	57,700000
2,566084	11,095517	73,531	-0,130654	22,730000	57,700000
2,567012	11,560488	73,631	-0,130469	22,730000	57,700000
2,568005	12,183721	73,732	-0,130221	22,730000	57,700000
2,569070	12,532143	73,832	-0,130083	22,730000	57,700000
2,570033	12,789779	73,932	-0,129980	22,730000	57,700000
2,571054	13,313639	74,032	-0,129771	22,730000	57,700000
2,572034	13,289102	74,132	-0,129781	22,730000	57,700000
2,573055	14,368719	74,233	-0,129352	22,730000	57,700000
2,574037	14,544156	74,333	-0,129282	22,730000	57,700000
2,575011	14,984591	74,434	-0,129106	22,730000	57,700000
2,576001	15,000540	74,534	-0,129100	22,730000	57,700000
2,577013	16,422444	74,634	-0,128534	22,730000	57,700000
2,578050	16,513230	74,734	-0,128498	22,730000	57,700000
2,579012	16,570892	74,834	-0,128475	22,730000	57,740000
2,580090	16,762278	74,934	-0,128399	22,730000	57,740000
2,581021	18,025921	75,034	-0,127896	22,730000	57,740000
2,582021	18,142470	75,134	-0,127850	22,730000	57,740000
2,583079	17,502061	75,234	-0,128104	22,730000	57,740000
2,584013	18,649154	75,334	-0,127648	22,730000	57,740000
2,585027	18,964451	75,434	-0,127522	22,730000	57,740000
2,586022	19,072413	75,534	-0,127479	22,730000	57,740000
2,586984	19,530023	75,634	-0,127297	22,730000	57,740000
2,587999	19,862496	75,734	-0,127165	22,730000	57,740000
2,589063	20,294343	75,834	-0,126993	22,730000	57,740000
2,589980	20,710241	75,934	-0,126828	22,730000	57,740000
2,591073	21,150675	76,035	-0,126652	22,730000	57,740000
2,592015	22,238880	76,135	-0,126219	22,730000	57,740000
2,593036	22,936950	76,235	-0,125941	22,730000	57,740000
2,594026	23,095212	76,335	-0,125878	22,730000	57,740000
2,595051	23,676733	76,435	-0,125647	22,730000	57,740000
2,596053	23,211762	76,535	-0,125832	22,730000	57,740000
2,597056	24,441053	76,635	-0,125343	22,730000	57,740000
2,598018	24,524478	76,735	-0,125310	22,730000	57,740000
2,598937	25,638446	76,835	-0,124866	22,730000	57,755000
2,600083	25,031162	76,935	-0,125108	22,730000	57,755000
2,601029	25,629858	77,035	-0,124870	22,730000	57,755000
2,602022	26,261679	77,135	-0,124618	22,730000	57,755000
2,602995	26,361053	77,235	-0,124579	22,730000	57,755000
2,603986	26,644453	77,335	-0,124466	22,730000	57,755000
2,605057	27,159724	77,436	-0,124261	22,730000	57,755000
2,606026	27,774370	77,536	-0,124016	22,730000	57,755000
2,607063	28,289642	77,636	-0,123811	22,730000	57,755000
2,607981	28,281054	77,736	-0,123814	22,730000	57,755000
2,609018	29,170511	77,836	-0,123460	22,730000	57,755000
2,610038	29,377846	77,936	-0,123378	22,730000	57,755000
2,611059	29,668607	78,036	-0,123262	22,730000	57,755000
2,612001	31,031623	78,136	-0,122720	22,730000	57,755000
2,613007	31,015674	78,236	-0,122726	22,730000	57,755000
2,613993	31,456109	78,336	-0,122551	22,730000	57,755000
2,615044	31,638907	78,436	-0,122478	22,730000	57,755000
2,616066	32,453527	78,536	-0,122154	22,730000	57,755000
2,617059	32,943035	78,636	-0,121959	22,730000	57,755000
2,618057	33,151598	78,736	-0,121876	22,730000	57,755000
2,619039	33,557681	78,837	-0,121714	22,730000	57,740000
2,620015	33,774831	78,937	-0,121628	22,730000	57,740000
2,621053	34,255751	79,038	-0,121437	22,730000	57,740000
2,621979	34,847087	79,138	-0,121201	22,730000	57,740000
2,623059	35,378308	79,238	-0,120990	22,730000	57,740000
2,624014	35,378308	79,338	-0,120990	22,730000	57,740000
2,625039	36,318065	79,438	-0,120616	22,730000	57,740000
2,625990	36,525400	79,538	-0,120533	22,730000	57,740000
2,626974	37,016135	79,638	-0,120338	22,730000	57,740000
2,628028	37,206295	79,738	-0,120262	22,730000	57,740000
2,629062	38,187765	79,840	-0,119872	22,730000	57,740000
2,630038	38,328851	79,940	-0,119815	22,730000	57,740000
2,631057	38,685861	80,040	-0,119673	22,730000	57,740000
2,632035	39,782654	80,140	-0,119237	22,730000	57,740000
2,633020	39,350807	80,240	-0,119409	22,730000	57,740000
2,634001	39,923740	80,340	-0,119181	22,730000	57,740000
2,635012	40,331050	80,440	-0,119019	22,730000	57,740000
2,636017	40,489312	80,540	-0,118956	22,730000	57,740000
2,637031	40,729772	80,640	-0,118860	22,730000	57,740000
2,638008	41,211919	80,740	-0,118668	22,730000	57,740000
2,638996	42,160264	80,841	-0,118291	22,730000	57,740000
2,640045	42,184801	80,941	-0,118281	22,730000	57,740000
2,640985	43,115970	81,041	-0,117910	22,730000	57,740000
2,642009	43,481568	81,141	-0,117765	22,730000	57,740000
2,642999	44,021376	81,241	-0,117550	22,730000	57,740000
2,643965	32,029042	81,341	-0,122323	22,730000	57,740000
2,644992	17,061626	81,441	-0,128280	22,730000	57,740000
2,646042	16,097332	81,542	-0,128664	22,730000	57,740000
2,647023	15,690022	81,642	-0,128826	22,730000	57,740000
2,647976	16,114508	81,742	-0,128657	22,730000	57,740000
2,649019	15,623773	81,842	-0,128852	22,730000	57,740000
2,650002	16,206521	81,942	-0,128620	22,730000	57,740000
2,651028	15,989371	82,042	-0,128707	22,730000	57,740000
2,651999	16,704617	82,142	-0,128422	22,730000	57,740000
2,653049	16,729154	82,242	-0,128412	22,730000	57,740000
2,654044	17,319262	82,342	-0,128177	22,730000	57,740000
2,655057	17,884834	82,442	-0,127952	22,730000	57,740000
2,655992	18,175595	82,543	-0,127836	22,730000	57,740000
2,657000	18,732579	82,644	-0,127615	22,730000	57,740000
2,658008	19,114125	82,744	-0,127463	22,730000	57,740000
2,659069	20,336055	82,845	-0,126977	22,730000	57,730000
2,660075	20,485729	82,945	-0,126917	22,730000	57,730000
2,660985	21,126139	83,046	-0,126662	22,730000	57,730000
2,662005	21,267225	83,146	-0,126606	22,730000	57,730000
2,663008	22,197167	83,246	-0,126236	22,730000	57,730000
2,664029	22,007008	83,347	-0,126312	22,730000	57,730000
2,665081	23,062088	83,447	-0,125892	22,730000	57,730000
2,666081	23,477986	83,548	-0,125726	22,730000	57,730000
2,667042	23,660784	83,648	-0,125653	22,730000	57,730000
2,668030	24,334318	83,748	-0,125385	22,730000	57,730000
2,669032	23,967494	83,848	-0,125531	22,730000	57,730000
2,669931	24,733040	83,948	-0,125227	22,730000	57,730000
2,670986	25,189424	84,048	-0,125045	22,730000	57,730000
2,672025	25,422523	84,149	-0,124952	22,730000	57,730000
2,673044	25,539072	84,249	-0,124906	22,730000	57,730000
2,673976	25,854370	84,349	-0,124780	22,730000	57,730000
2,675019	26,660402	84,449	-0,124459	22,730000	57,730000
2,676014	26,726651	84,550	-0,124433	22,730000	57,730000
2,676999	27,076299	84,650	-0,124294	22,730000	57,730000
2,677994	27,217386	84,750	-0,124238	22,730000	57,730000
2,679041	27,732657	84,851	-0,124033	22,730000	57,730000
2,680037	28,082306	84,951	-0,123894	22,730000	57,730000
2,681037	28,472440	85,052	-0,123738	22,730000	57,730000
2,682055	28,746025	85,152	-0,123629	22,730000	57,730000
2,683023	29,626894	85,252	-0,123279	22,730000	57,730000
2,684007	29,586409	85,352	-0,123295	22,730000	57,730000
2,685052	30,026843	85,453	-0,123120	22,730000	57,730000
2,685989	30,366677	85,553	-0,122984	22,730000	57,730000
2,687030	30,192466	85,653	-0,123054	22,730000	57,730000
2,688013	30,866000	85,753	-0,122786	22,730000	57,730000
2,689032	31,430345	85,853	-0,122561	22,730000	57,730000
2,690002	31,946844	85,953	-0,122355	22,730000	57,730000
2,691022	32,162767	86,053	-0,122270	22,730000	57,730000
2,692023	32,411815	86,153	-0,122170	22,730000	57,730000
2,693004	33,125834	86,253	-0,121886	22,730000	57,730000
2,694029	33,741707	86,353	-0,121641	22,730000	57,730000
2,695038	33,475483	86,453	-0,121747	22,730000	57,730000
2,696040	33,924505	86,554	-0,121568	22,730000	57,730000
2,697034	34,530563	86,655	-0,121327	22,730000	57,730000
2,697984	34,622576	86,756	-0,121291	22,730000	57,730000
2,699057	34,506026	86,856	-0,121337	22,730000	57,700000
2,700054	34,970998	86,956	-0,121152	22,730000	57,700000
2,701039	35,578282	87,056	-0,120910	22,730000	57,700000
2,701988	36,135266	87,156	-0,120688	22,730000	57,700000
2,703014	36,708199	87,256	-0,120460	22,730000	57,700000
2,704002	36,849285	87,357	-0,120404	22,730000	57,700000
2,704996	36,666487	87,458	-0,120477	22,730000	57,700000
2,706018	37,406270	87,558	-0,120183	22,730000	57,700000
2,707018	37,688442	87,658	-0,120070	22,730000	57,700000
2,707990	38,154640	87,760	-0,119885	22,730000	57,700000
2,708997	38,602436	87,860	-0,119707	22,730000	57,700000
2,709965	38,910372	87,960	-0,119584	22,730000	57,700000
2,711014	40,015753	88,060	-0,119144	22,730000	57,700000
2,712074	40,315101	88,161	-0,119025	22,730000	57,700000
2,713015	40,863497	88,261	-0,118807	22,730000	57,700000
2,714033	41,029120	88,362	-0,118741	22,730000	57,700000
2,714981	41,644993	88,463	-0,118496	22,730000	57,700000
2,716002	41,836379	88,563	-0,118419	22,730000	57,700000
2,717012	42,002002	88,663	-0,118354	22,730000	57,700000
2,718050	42,308712	88,764	-0,118231	22,730000	57,700000
2,719021	42,501325	88,864	-0,118155	22,730000	57,740000
2,719999	42,741785	88,964	-0,118059	22,730000	57,740000
2,720980	43,265645	89,065	-0,117851	22,730000	57,740000
2,722050	43,439856	89,165	-0,117781	22,730000	57,740000
2,723033	44,586948	89,266	-0,117325	22,730000	57,740000
2,724021	45,177057	89,366	-0,117090	22,730000	57,740000
2,725038	45,492354	89,466	-0,116964	22,730000	57,740000
2,726016	45,683741	89,566	-0,116888	22,730000	57,740000
2,727038	45,824827	89,666	-0,116832	22,730000	57,740000
2,728030	45,608904	89,766	-0,116918	22,730000	57,740000
2,729060	46,522898	89,866	-0,116554	22,730000	57,740000
2,730036	46,597735	89,967	-0,116524	22,730000	57,740000
2,731008	47,171895	90,068	-0,116296	22,730000	57,740000
2,732044	47,536265	90,169	-0,116151	22,730000	57,740000
2,732983	47,819665	90,269	-0,116038	22,730000	57,740000
2,734002	48,907869	90,369	-0,115605	22,730000	57,740000
2,735037	49,082080	90,470	-0,115536	22,730000	57,740000
2,736015	48,974119	90,570	-0,115579	22,730000	57,740000
2,736997	49,614528	90,670	-0,115324	22,730000	57,740000
2,738064	49,764202	90,771	-0,115264	22,730000	57,740000
2,738995	50,744445	90,871	-0,114874	22,730000	57,770000
2,740007	50,869582	90,971	-0,114824	22,730000	57,770000
2,740958	50,811921	91,072	-0,114847	22,730000	57,770000
2,742056	51,517352	91,172	-0,114566	22,730000	57,770000
2,743035	51,700151	91,272	-0,114494	22,730000	57,770000
2,743990	52,298848	91,372	-0,114255	22,730000	57,770000
2,745003	52,831295	91,472	-0,114043	22,730000	57,770000
2,745965	52,888957	91,573	-0,114021	22,730000	57,770000
2,747041	53,661864	91,673	-0,113713	22,730000	57,770000
2,747974	53,752650	91,773	-0,113677	22,730000	57,770000
2,749011	54,850669	91,874	-0,113240	22,730000	57,770000
2,750047	54,734120	91,974	-0,113286	22,730000	57,770000
2,751052	55,315641	92,074	-0,113055	22,730000	57,770000
2,751998	55,672650	92,174	-0,112913	22,730000	57,770000
2,753052	55,963411	92,274	-0,112797	22,730000	57,770000
2,753989	56,363360	92,375	-0,112638	22,730000	57,770000
2,755041	56,579283	92,475	-0,112552	22,730000	57,770000
2,755989	57,268766	92,575	-0,112277	22,730000	57,770000
2,756951	57,867462	92,675	-0,112039	22,730000	57,770000
2,758039	58,407271	92,776	-0,111824	22,730000	57,770000
2,759003	58,748332	92,876	-0,111688	22,730000	57,770000
2,760027	59,246427	92,976	-0,111490	22,730000	57,770000
2,760963	59,861073	93,076	-0,111246	22,730000	57,770000
2,762003	61,083003	93,176	-0,110759	22,730000	57,770000
2,762996	61,664524	93,276	-0,110528	22,730000	57,770000
2,763987	61,291565	93,377	-0,110676	22,730000	57,770000
2,765017	61,880447	93,477	-0,110442	22,730000	57,770000
2,765999	61,806837	93,577	-0,110471	22,730000	57,770000
2,767006	62,712243	93,677	-0,110111	22,730000	57,770000
2,768059	64,116972	93,777	-0,109552	22,730000	57,770000
2,768978	63,758735	93,878	-0,109694	22,730000	57,770000
2,770009	64,498518	93,979	-0,109400	22,730000	57,770000
2,771053	65,412512	94,079	-0,109036	22,730000	57,770000
2,772037	65,936371	94,179	-0,108828	22,730000	57,770000
2,773038	66,709279	94,279	-0,108520	22,730000	57,770000
2,774022	66,784116	94,380	-0,108490	22,730000	57,770000
2,774980	67,856372	94,480	-0,108063	22,730000	57,770000
2,776043	67,947158	94,580	-0,108027	22,730000	57,770000
2,776983	68,504142	94,680	-0,107806	22,730000	57,770000
2,778000	69,360474	94,780	-0,107465	22,730000	57,770000
2,779011	69,252513	94,881	-0,107508	22,730000	57,740000
2,779988	69,459848	94,981	-0,107425	22,730000	57,740000
2,781048	70,316181	95,081	-0,107084	22,730000	57,740000
2,782000	70,681778	95,181	-0,106939	22,730000	57,740000
2,782954	71,030200	95,281	-0,106800	22,730000	57,740000
2,784041	71,538110	95,381	-0,106598	22,730000	57,740000
2,785020	72,460692	95,482	-0,106231	22,730000	57,740000
2,785971	73,632322	95,582	-0,105765	22,730000	57,740000
2,786961	74,147593	95,682	-0,105560	22,730000	57,740000
2,787985	74,770827	95,782	-0,105312	22,730000	57,740000
2,789003	74,986750	95,882	-0,105226	22,730000	57,740000
2,790014	75,543734	95,982	-0,105004	22,730000	57,740000
2,791008	76,151019	96,082	-0,104762	22,730000	57,740000
2,792026	76,017293	96,182	-0,104815	22,730000	57,740000
2,793012	76,574278	96,282	-0,104594	22,730000	57,740000
2,793992	77,538572	96,382	-0,104210	22,730000	57,740000
2,794972	78,202291	96,482	-0,103946	22,730000	57,740000
2,795974	78,501639	96,582	-0,103827	22,730000	57,740000
2,796984	79,499058	96,682	-0,103430	22,730000	57,740000
2,798040	79,840119	96,782	-0,103294	22,730000	57,740000
2,799034	80,696451	96,882	-0,102953	22,730000	57,740000
2,799974	81,103761	96,982	-0,102791	22,730000	57,740000
2,801072	81,344221	97,082	-0,102695	22,730000	57,740000
2,802037	81,801831	97,183	-0,102513	22,730000	57,740000
2,803011	82,291340	97,284	-0,102318	22,730000	57,740000
2,804028	82,690062	97,385	-0,102160	22,730000	57,740000
2,805016	83,305934	97,485	-0,101915	22,730000	57,740000
2,806021	84,061666	97,585	-0,101614	22,730000	57,740000
2,806960	84,660362	97,685	-0,101375	22,730000	57,740000
2,807984	85,084848	97,785	-0,101207	22,730000	57,740000
2,809008	85,699494	97,885	-0,100962	22,730000	57,740000
2,810083	85,816043	97,985	-0,100916	22,730000	57,740000
2,811016	86,371800	98,085	-0,100694	22,730000	57,740000
2,812048	87,153296	98,187	-0,100383	22,730000	57,740000
2,812989	87,901667	98,287	-0,100085	22,730000	57,740000
2,813990	88,300389	98,387	-0,099927	22,730000	57,740000
2,815016	88,707699	98,487	-0,099765	22,730000	57,740000
2,816011	89,264683	98,587	-0,099543	22,730000	57,740000
2,816972	90,203213	98,687	-0,099169	22,730000	57,740000
2,817991	90,544274	98,787	-0,099034	22,730000	57,740000
2,819026	91,125795	98,887	-0,098802	22,730000	57,715000
2,819956	91,425143	98,987	-0,098683	22,730000	57,715000
2,821004	92,098677	99,088	-0,098415	22,730000	57,715000
2,822014	92,697374	99,188	-0,098177	22,730000	57,715000
2,823003	93,012671	99,288	-0,098051	22,730000	57,715000
2,823991	93,669029	99,389	-0,097790	22,730000	57,715000
2,825035	94,358511	99,489	-0,097516	22,730000	57,715000
2,826110	94,857834	99,589	-0,097317	22,730000	57,715000
2,827004	95,364518	99,689	-0,097115	22,730000	57,715000
2,828031	96,561911	99,790	-0,096639	22,730000	57,715000
2,828979	96,544735	99,890	-0,096646	22,730000	57,715000
2,830020	97,375304	99,990	-0,096315	22,730000	57,715000
2,831048	97,516391	100,090	-0,096259	22,730000	57,715000
2,831979	98,264761	100,190	-0,095961	22,730000	57,715000
2,833066	98,912531	100,290	-0,095703	22,730000	57,715000
2,833990	100,367560	100,390	-0,095124	22,730000	57,715000
2,835008	100,491471	100,491	-0,095075	22,730000	57,715000
2,836002	100,325848	100,592	-0,095141	22,730000	57,715000
2,837046	100,957669	100,693	-0,094889	22,730000	57,715000
2,838025	101,165005	100,793	-0,094807	22,730000	57,715000
2,839007	102,129299	100,893	-0,094423	22,730000	57,740000
2,840025	102,378347	100,994	-0,094324	22,730000	57,740000
2,841014	103,708238	101,094	-0,093794	22,730000	57,740000
2,841982	103,408890	101,194	-0,093914	22,730000	57,740000
2,843036	104,289759	101,294	-0,093563	22,730000	57,740000
2,844026	104,789082	101,394	-0,093364	22,730000	57,740000
2,845062	105,553402	101,494	-0,093060	22,730000	57,740000
2,846001	106,126335	101,594	-0,092832	22,730000	57,740000
2,846993	106,625658	101,695	-0,092633	22,730000	57,740000
2,848004	107,813236	101,795	-0,092161	22,730000	57,740000
2,848993	108,328508	101,895	-0,091956	22,730000	57,740000
2,849990	108,810655	101,995	-0,091764	22,730000	57,740000
2,851007	109,517313	102,096	-0,091482	22,730000	57,740000
2,852032	110,223971	102,197	-0,091201	22,730000	57,740000
2,853024	110,473019	102,297	-0,091102	22,730000	57,740000
2,854000	110,830029	102,397	-0,090960	22,730000	57,740000
2,855037	110,722067	102,497	-0,091003	22,730000	57,740000
2,855983	111,653237	102,597	-0,090632	22,730000	57,740000
2,857049	112,076496	102,697	-0,090464	22,730000	57,740000
2,858006	112,542694	102,798	-0,090278	22,730000	57,740000
2,859021	113,199052	102,898	-0,090017	22,730000	57,730000
2,860030	114,578017	102,999	-0,089468	22,730000	57,730000
2,861024	114,412394	103,099	-0,089534	22,730000	57,730000
2,862018	115,634324	103,199	-0,089048	22,730000	57,730000
2,863015	115,916497	103,299	-0,088936	22,730000	57,730000
2,863967	116,414592	103,400	-0,088737	22,730000	57,730000
2,865026	117,079538	103,501	-0,088473	22,730000	57,730000
2,865961	117,429187	103,601	-0,088333	22,730000	57,730000
2,867042	118,600817	103,701	-0,087867	22,730000	57,730000
2,868024	118,849865	103,802	-0,087768	22,730000	57,730000
2,868975	119,241226	103,902	-0,087612	22,730000	57,730000
2,869970	119,274350	104,002	-0,087599	22,730000	57,730000
2,870986	120,287718	104,102	-0,087196	22,730000	57,730000
2,872030	120,445980	104,202	-0,087133	22,730000	57,730000
2,873022	121,368562	104,302	-0,086766	22,730000	57,730000
2,874009	121,916958	104,402	-0,086547	22,730000	57,730000
2,874991	122,216306	104,503	-0,086428	22,730000	57,730000
2,876005	123,138888	104,603	-0,086061	22,730000	57,730000
2,877001	123,180600	104,704	-0,086044	22,730000	57,730000
2,877922	124,160843	104,805	-0,085654	22,730000	57,730000
2,878981	124,609866	104,905	-0,085476	22,730000	57,700000
2,879985	125,141086	105,006	-0,085264	22,730000	57,700000
2,880989	125,715246	105,107	-0,085036	22,730000	57,700000
2,882054	126,246467	105,207	-0,084824	22,730000	57,700000
2,882996	127,219349	105,307	-0,084437	22,730000	57,700000
2,884006	127,468397	105,408	-0,084338	22,730000	57,700000
2,885042	128,133342	105,508	-0,084073	22,730000	57,700000
2,885993	128,481764	105,609	-0,083935	22,730000	57,700000
2,886981	128,855950	105,709	-0,083786	22,730000	57,700000
2,887957	130,260678	105,809	-0,083227	22,730000	57,700000
2,889013	130,227554	105,909	-0,083240	22,730000	57,700000
2,889997	130,725650	106,009	-0,083042	22,730000	57,700000
2,891030	131,117011	106,109	-0,082886	22,730000	57,700000
2,891992	131,980704	106,210	-0,082542	22,730000	57,700000
2,892962	132,986711	106,310	-0,082142	22,730000	57,700000
2,894015	133,385433	106,410	-0,081983	22,730000	57,700000
2,895023	133,776794	106,511	-0,081827	22,730000	57,700000
2,895977	134,290839	106,611	-0,081623	22,730000	57,700000
2,897024	135,280897	106,711	-0,081229	22,730000	57,700000
2,897983	136,120053	106,811	-0,080895	22,730000	57,700000
2,898968	136,485651	106,911	-0,080749	22,730000	57,700000
2,900013	137,067172	107,011	-0,080518	22,730000	57,700000
2,901046	137,665868	107,111	-0,080279	22,730000	57,700000
2,902040	138,205677	107,211	-0,080064	22,730000	57,700000
2,903055	138,097715	107,311	-0,080107	22,730000	57,700000
2,903995	138,480488	107,411	-0,079955	22,730000	57,700000
2,905002	139,220271	107,511	-0,079661	22,730000	57,700000
2,906038	139,502444	107,612	-0,079548	22,730000	57,700000
2,907031	140,258176	107,712	-0,079248	22,730000	57,700000
2,908070	140,931709	107,812	-0,078979	22,730000	57,700000
2,908978	141,480106	107,912	-0,078761	22,730000	57,700000
2,909996	142,087390	108,012	-0,078520	22,730000	57,700000
2,910954	142,560949	108,112	-0,078331	22,730000	57,700000
2,911978	143,890841	108,212	-0,077802	22,730000	57,700000
2,912975	144,629397	108,312	-0,077508	22,730000	57,700000
2,914009	144,836732	108,412	-0,077425	22,730000	57,700000
2,914943	145,576515	108,512	-0,077131	22,730000	57,700000
2,916008	146,225512	108,612	-0,076873	22,730000	57,700000
2,917071	146,624234	108,712	-0,076714	22,730000	57,700000
2,918039	147,264644	108,813	-0,076459	22,730000	57,715000
2,919017	147,156682	108,913	-0,076502	22,730000	57,715000
2,920036	148,336899	109,013	-0,076032	22,730000	57,715000
2,921006	148,535647	109,113	-0,075953	22,730000	57,715000
2,922000	148,469398	109,213	-0,075979	22,730000	57,715000
2,923015	149,491353	109,313	-0,075573	22,730000	57,715000
2,924026	150,580785	109,413	-0,075139	22,730000	57,715000
2,924986	150,754996	109,514	-0,075070	22,730000	57,715000
2,925993	151,834613	109,614	-0,074640	22,730000	57,715000
2,927057	152,175673	109,715	-0,074504	22,730000	57,715000
2,928048	152,192849	109,815	-0,074498	22,730000	57,715000
2,929029	153,173092	109,915	-0,074107	22,730000	57,715000
2,930057	153,505565	110,015	-0,073975	22,730000	57,715000
2,930994	153,796325	110,115	-0,073859	22,730000	57,715000
2,932007	154,386434	110,216	-0,073625	22,730000	57,715000
2,933006	155,209642	110,316	-0,073297	22,730000	57,715000
2,934048	156,198473	110,417	-0,072903	22,730000	57,715000
2,934985	156,130997	110,517	-0,072930	22,730000	57,715000
2,935966	156,978741	110,617	-0,072593	22,730000	57,715000
2,937055	158,117246	110,717	-0,072140	22,730000	57,715000
2,937986	158,010512	110,817	-0,072182	22,730000	57,780000
2,939014	158,790780	110,918	-0,071872	22,730000	57,780000
2,940006	159,506026	111,018	-0,071587	22,730000	57,780000
2,941016	160,063010	111,120	-0,071365	22,730000	57,780000
2,941993	160,345183	111,220	-0,071253	22,730000	57,780000
2,942986	161,135266	111,320	-0,070938	22,730000	57,780000
2,943974	161,267765	111,421	-0,070886	22,730000	57,780000
2,944997	162,322845	111,521	-0,070466	22,730000	57,780000
2,945987	162,705618	111,621	-0,070313	22,730000	57,780000
2,947023	163,179177	111,721	-0,070125	22,730000	57,780000
2,948071	163,952085	111,821	-0,069817	22,730000	57,780000
2,948998	164,118935	111,921	-0,069751	22,730000	57,780000
2,950016	164,724992	112,021	-0,069510	22,730000	57,780000
2,951045	165,339638	112,122	-0,069265	22,730000	57,780000
2,952034	165,954283	112,223	-0,069021	22,730000	57,780000
2,953061	166,735779	112,323	-0,068709	22,730000	57,780000
2,954002	167,092788	112,424	-0,068567	22,730000	57,780000
2,955046	168,598118	112,524	-0,067968	22,730000	57,780000
2,955973	168,298769	112,625	-0,068087	22,730000	57,780000
2,957068	168,871702	112,726	-0,067859	22,730000	57,780000
2,957994	170,210182	112,826	-0,067327	22,720000	57,695000
2,958998	170,758578	112,926	-0,067108	22,720000	57,695000
2,959992	170,417517	113,026	-0,067244	22,720000	57,695000
2,960996	171,306974	113,127	-0,066890	22,720000	57,695000
2,961951	171,681160	113,227	-0,066741	22,720000	57,695000
2,962996	172,205019	113,327	-0,066533	22,720000	57,695000
2,964024	172,769364	113,427	-0,066308	22,720000	57,695000
2,964989	173,193850	113,527	-0,066139	22,720000	57,695000
2,966016	174,123793	113,627	-0,065769	22,720000	57,695000
2,967018	174,365480	113,727	-0,065673	22,720000	57,695000
2,968004	175,296649	113,827	-0,065302	22,720000	57,695000
2,968964	176,492816	113,928	-0,064826	22,720000	57,695000
2,970015	176,343141	114,028	-0,064886	22,720000	57,695000
2,970953	176,833876	114,128	-0,064690	22,720000	57,695000
2,971995	177,457110	114,228	-0,064442	22,720000	57,695000
2,972980	178,562490	114,328	-0,064002	22,720000	57,695000
2,973988	179,177136	114,429	-0,063758	22,720000	57,695000
2,975010	179,593034	114,529	-0,063592	22,720000	57,695000
2,976041	180,540152	114,629	-0,063215	22,720000	57,695000
2,977032	181,238222	114,729	-0,062938	22,720000	57,695000
2,978012	181,562107	114,829	-0,062809	22,710000	57,750000
2,979027	181,894580	114,929	-0,062676	22,710000	57,750000
2,980007	183,149635	115,029	-0,062177	22,710000	57,750000
2,980977	183,647731	115,129	-0,061979	22,710000	57,750000
2,982002	183,913955	115,229	-0,061873	22,710000	57,750000
2,982995	183,872242	115,329	-0,061889	22,710000	57,750000
2,983997	184,603437	115,429	-0,061598	22,710000	57,750000
2,985014	184,928549	115,529	-0,061469	22,710000	57,750000
2,986028	186,365175	115,629	-0,060897	22,710000	57,750000
2,986976	186,208140	115,730	-0,060959	22,710000	57,750000
2,988004	187,230096	115,830	-0,060553	22,710000	57,750000
2,988961	187,679118	115,930	-0,060374	22,710000	57,750000
2,990031	188,584524	116,030	-0,060014	22,710000	57,750000
2,991004	189,381968	116,130	-0,059696	22,710000	57,750000
2,991976	189,465393	116,230	-0,059663	22,710000	57,750000
2,992981	190,147515	116,330	-0,059392	22,710000	57,750000
2,993959	190,795285	116,431	-0,059134	22,710000	57,750000
2,994972	191,451643	116,531	-0,058873	22,710000	57,750000
2,995984	191,892078	116,631	-0,058697	22,710000	57,750000
2,997007	192,847784	116,732	-0,058317	22,710000	57,750000
2,998008	193,155720	116,832	-0,058194	22,720000	57,735000
2,998977	194,003465	116,932	-0,057857	22,720000	57,735000
2,999961	194,161727	117,032	-0,057794	22,720000	57,735000
3,001001	194,468436	117,132	-0,057672	22,720000	57,735000
3,002009	195,166506	117,232	-0,057394	22,720000	57,735000
3,002995	195,516155	117,332	-0,057255	22,720000	57,735000
3,003978	196,230174	117,432	-0,056971	22,720000	57,735000
3,004984	197,252130	117,532	-0,056564	22,720000	57,735000
3,005988	197,135580	117,632	-0,056610	22,720000	57,735000
3,006980	198,548897	117,732	-0,056048	22,720000	57,735000
3,008025	198,714520	117,832	-0,055982	22,720000	57,735000
3,009027	199,554903	117,933	-0,055647	22,720000	57,735000
3,009969	199,695990	118,033	-0,055591	22,720000	57,735000
3,011051	200,211261	118,133	-0,055386	22,720000	57,735000
3,011956	200,701996	118,234	-0,055191	22,720000	57,735000
3,013038	201,574278	118,335	-0,054844	22,720000	57,735000
3,013959	201,591453	118,435	-0,054837	22,720000	57,735000
3,014943	202,587645	118,536	-0,054440	22,720000	57,735000
3,016002	203,443978	118,636	-0,054100	22,720000	57,735000
3,017057	204,591071	118,736	-0,053643	22,720000	57,735000
3,017989	204,599658	118,837	-0,053640	22,720000	57,735000
3,019046	205,762700	118,938	-0,053177	22,720000	57,735000
3,019978	205,604438	119,038	-0,053240	22,720000	57,735000
3,021036	206,793244	119,138	-0,052767	22,720000	57,735000
3,022009	207,425065	119,239	-0,052515	22,720000	57,735000
3,022979	207,176017	119,339	-0,052614	22,720000	57,735000
3,024010	208,746369	119,440	-0,051989	22,720000	57,735000
3,025024	209,419902	119,541	-0,051721	22,720000	57,735000
3,026055	209,195391	119,642	-0,051811	22,720000	57,735000
3,027022	209,502100	119,742	-0,051688	22,720000	57,735000
3,028014	210,300771	119,843	-0,051371	22,720000	57,735000
3,029023	210,748567	119,944	-0,051192	22,720000	57,735000
3,030085	211,696912	120,044	-0,050815	22,720000	57,735000
3,031053	212,734817	120,145	-0,050402	22,720000	57,735000
3,032008	213,399762	120,245	-0,050137	22,720000	57,735000
3,032968	213,915034	120,345	-0,049932	22,720000	57,735000
3,034017	214,713705	120,445	-0,049614	22,720000	57,735000
3,033997	214,273271	120,545	-0,049790	22,720000	57,735000
3,034035	214,522319	120,645	-0,049690	22,720000	57,735000
3,034032	214,073296	120,745	-0,049869	22,720000	57,735000
3,034030	214,097833	120,846	-0,049859	22,730000	57,730000
3,033984	214,247507	120,946	-0,049800	22,730000	57,730000
3,033966	213,765360	121,046	-0,049992	22,730000	57,730000
3,034001	214,115009	121,146	-0,049853	22,730000	57,730000
3,034020	213,865961	121,246	-0,049952	22,730000	57,730000
3,033979	213,981283	121,346	-0,049906	22,730000	57,730000
3,033949	213,873322	121,446	-0,049949	22,730000	57,730000
3,033974	213,632862	121,546	-0,050044	22,730000	57,730000
3,034014	213,749411	121,646	-0,049998	22,730000	57,730000
3,033999	213,815660	121,746	-0,049972	22,730000	57,730000
3,033961	213,948159	121,847	-0,049919	22,730000	57,730000
3,033966	213,573973	121,947	-0,050068	22,730000	57,730000
3,033984	213,458651	122,047	-0,050114	22,730000	57,730000
3,033969	213,524900	122,148	-0,050087	22,730000	57,730000
3,033937	213,573973	122,248	-0,050068	22,730000	57,730000
3,033988	213,582561	122,349	-0,050064	22,730000	57,730000
3,034041	213,624274	122,449	-0,050048	22,730000	57,730000
3,033989	213,291801	122,549	-0,050180	22,730000	57,730000
3,033995	213,573973	122,649	-0,050068	22,730000	57,730000
3,034005	213,117590	122,749	-0,050250	22,730000	57,730000
3,033990	213,084465	122,849	-0,050263	22,730000	57,730000
3,033961	213,399762	122,949	-0,050137	22,730000	57,730000
3,034001	213,126178	123,049	-0,050246	22,730000	57,730000
3,033999	213,067290	123,149	-0,050270	22,730000	57,730000
3,034003	213,333513	123,249	-0,050164	22,730000	57,730000
3,034020	212,851366	123,349	-0,050355	22,730000	57,730000
3,033983	213,665986	123,449	-0,050031	22,730000	57,730000
3,033994	213,366638	123,549	-0,050150	22,730000	57,730000
3,033999	212,435468	123,650	-0,050521	22,730000	57,730000
3,033953	213,133539	123,750	-0,050243	22,730000	57,730000
3,033960	213,150715	123,850	-0,050236	22,730000	57,730000
3,034000	212,618267	123,950	-0,050448	22,730000	57,730000
3,033968	212,809654	124,050	-0,050372	22,730000	57,730000
3,033984	212,760580	124,151	-0,050392	22,730000	57,730000
3,034002	212,727456	124,252	-0,050405	22,730000	57,730000
3,034008	212,751992	124,352	-0,050395	22,730000	57,730000
3,033959	212,734817	124,453	-0,050402	22,730000	57,730000
3,033996	212,769168	124,553	-0,050388	22,730000	57,730000
3,033984	212,644031	124,653	-0,050438	22,730000	57,730000
3,034017	212,161884	124,754	-0,050630	22,730000	57,730000
3,033978	212,618267	124,854	-0,050448	22,740000	57,700000
3,033977	212,344682	124,955	-0,050557	22,740000	57,700000
3,034001	212,278433	125,056	-0,050583	22,740000	57,700000
3,033969	212,428107	125,156	-0,050524	22,740000	57,700000
3,033991	212,444056	125,256	-0,050518	22,740000	57,700000
3,033992	212,361858	125,356	-0,050550	22,740000	57,700000
3,033981	212,586369	125,457	-0,050461	22,740000	57,700000
3,033945	212,618267	125,557	-0,050448	22,740000	57,700000
3,033970	212,602318	125,657	-0,050455	22,740000	57,700000
3,034024	212,428107	125,757	-0,050524	22,740000	57,700000
3,033987	212,593730	125,857	-0,050458	22,740000	57,700000
3,033995	211,987673	125,957	-0,050699	22,740000	57,700000
3,034044	212,435468	126,057	-0,050521	22,740000	57,700000
3,034029	212,219545	126,158	-0,050607	22,740000	57,700000
3,033986	212,062510	126,258	-0,050669	22,740000	57,700000
3,034033	212,228133	126,358	-0,050604	22,740000	57,700000
3,033968	212,012209	126,458	-0,050689	22,740000	57,700000
3,033953	211,987673	126,559	-0,050699	22,740000	57,700000
3,033961	212,170471	126,660	-0,050626	22,740000	57,700000
3,033984	212,029385	126,760	-0,050683	22,740000	57,700000
3,033983	212,062510	126,860	-0,050669	22,740000	57,715000
3,034007	212,228133	126,960	-0,050604	22,740000	57,715000
3,034022	211,912836	127,060	-0,050729	22,740000	57,715000
3,034004	212,062510	127,160	-0,050669	22,740000	57,715000
3,033975	211,904248	127,260	-0,050732	22,740000	57,715000
3,033970	211,921424	127,360	-0,050726	22,740000	57,715000
3,034023	211,888299	127,460	-0,050739	22,740000	57,715000
3,034014	212,095634	127,560	-0,050656	22,740000	57,715000
3,034026	212,003622	127,660	-0,050693	22,740000	57,715000
3,033936	211,679737	127,760	-0,050822	22,740000	57,715000
3,034037	212,120171	127,860	-0,050646	22,740000	57,715000
3,034057	211,629436	127,960	-0,050842	22,740000	57,715000
3,034012	211,604899	128,061	-0,050852	22,740000	57,715000
3,033983	211,663788	128,161	-0,050828	22,740000	57,715000
3,033969	211,655200	128,261	-0,050832	22,740000	57,715000
3,033981	211,829411	128,362	-0,050762	22,740000	57,715000
3,033966	211,688324	128,463	-0,050818	22,740000	57,715000
3,033993	211,629436	128,563	-0,050842	22,740000	57,715000
3,033988	211,696912	128,663	-0,050815	22,740000	57,715000
3,033941	211,530062	128,763	-0,050881	22,740000	57,715000
3,033939	211,655200	128,863	-0,050832	22,740000	57,715000
3,034001	211,505526	128,963	-0,050891	22,740000	57,715000
3,033998	211,671149	129,064	-0,050825	22,740000	57,715000
3,034002	211,472401	129,165	-0,050904	22,740000	57,715000
3,033965	211,496938	129,265	-0,050895	22,740000	57,715000
3,034019	211,779110	129,365	-0,050782	22,740000	57,715000
3,033986	211,455225	129,466	-0,050911	22,740000	57,715000
3,034024	211,763162	129,566	-0,050789	22,740000	57,715000
3,033955	210,965717	129,666	-0,051106	22,740000	57,715000
3,033995	211,281014	129,766	-0,050980	22,740000	57,715000
3,033998	211,338676	129,866	-0,050958	22,740000	57,715000
3,034051	211,388976	129,967	-0,050938	22,740000	57,715000
3,033988	211,447864	130,067	-0,050914	22,740000	57,715000
3,033987	211,047915	130,167	-0,051073	22,740000	57,715000
3,034006	211,155877	130,268	-0,051030	22,740000	57,715000
3,034047	211,380388	130,368	-0,050941	22,740000	57,715000
3,034049	211,106804	130,469	-0,051050	22,740000	57,715000
3,033029	211,521475	130,569	-0,050885	22,740000	57,715000
3,031973	209,759736	130,669	-0,051586	22,740000	57,715000
3,030968	208,995417	130,769	-0,051890	22,740000	57,715000
3,030028	208,953704	130,869	-0,051907	22,730000	57,730000
3,028987	207,898624	130,969	-0,052327	22,730000	57,730000
3,027995	207,773487	131,069	-0,052376	22,730000	57,730000
3,026998	207,117129	131,169	-0,052638	22,730000	57,730000
3,025950	206,319684	131,269	-0,052955	22,730000	57,730000
3,024967	205,771288	131,369	-0,053173	22,730000	57,730000
3,023954	204,674496	131,470	-0,053610	22,730000	57,730000
3,022980	203,835339	131,571	-0,053944	22,730000	57,730000
3,021987	203,743326	131,671	-0,053980	22,730000	57,730000
3,021007	202,970418	131,771	-0,054288	22,730000	57,730000
3,019991	202,089549	131,871	-0,054639	22,730000	57,730000
3,018994	200,933869	131,971	-0,055099	22,730000	57,730000
3,018051	201,366942	132,071	-0,054926	22,730000	57,730000
3,016970	200,252974	132,171	-0,055370	22,730000	57,730000
3,016028	199,546316	132,271	-0,055651	22,730000	57,730000
3,015000	199,048220	132,372	-0,055849	22,730000	57,730000
3,014018	197,784577	132,473	-0,056352	22,730000	57,730000
3,012958	197,103682	132,574	-0,056623	22,730000	57,730000
3,011997	196,230174	132,675	-0,056971	22,730000	57,730000
3,010998	195,516155	132,775	-0,057255	22,730000	57,730000
3,010004	194,908871	132,876	-0,057497	22,730000	57,730000
3,009031	195,058545	132,976	-0,057437	22,730000	57,730000
3,007979	194,169088	133,077	-0,057791	22,730000	57,730000
3,007028	193,853790	133,178	-0,057917	22,730000	57,730000
3,006000	192,981509	133,279	-0,058264	22,730000	57,730000
3,005027	192,723873	133,379	-0,058366	22,730000	57,730000
3,004052	191,717867	133,479	-0,058767	22,730000	57,730000
3,002997	191,119170	133,579	-0,059005	22,730000	57,730000
3,001994	190,562186	133,679	-0,059227	22,730000	57,730000
3,000991	189,606480	133,780	-0,059607	22,730000	57,730000
2,999981	189,124333	133,880	-0,059799	22,730000	57,730000
2,999041	188,526863	133,980	-0,060037	22,730000	57,730000
2,998069	187,287757	134,080	-0,060530	22,730000	57,730000
2,996987	186,424064	134,180	-0,060874	22,730000	57,730000
2,995991	186,149252	134,280	-0,060983	22,730000	57,730000
2,994926	185,692869	134,380	-0,061165	22,730000	57,730000
2,994038	184,919961	134,480	-0,061472	22,730000	57,730000
2,992970	184,645150	134,580	-0,061582	22,730000	57,730000
2,991986	183,656319	134,681	-0,061975	22,730000	57,730000
2,991019	182,833111	134,781	-0,062303	22,730000	57,730000
2,989974	182,775450	134,882	-0,062326	22,730000	57,730000
2,988993	181,936293	134,982	-0,062660	22,730000	57,730000
2,987992	181,238222	135,082	-0,062938	22,730000	57,730000
2,986993	180,482491	135,182	-0,063238	22,730000	57,730000
2,985966	179,783193	135,282	-0,063517	22,730000	57,730000
2,984997	179,359934	135,382	-0,063685	22,730000	57,730000
2,983985	178,353928	135,482	-0,064085	22,730000	57,730000
2,982992	177,789583	135,582	-0,064310	22,730000	57,730000
2,981976	177,490234	135,683	-0,064429	22,730000	57,730000
2,980992	176,002081	135,783	-0,065021	22,730000	57,730000
2,980041	176,417979	135,883	-0,064856	22,730000	57,730000
2,978984	175,462272	135,983	-0,065236	22,730000	57,730000
2,977955	174,814502	136,083	-0,065494	22,730000	57,730000
2,976995	173,675997	136,184	-0,065947	22,730000	57,730000
2,975952	173,841620	136,284	-0,065881	22,730000	57,730000
2,975019	173,093249	136,384	-0,066179	22,730000	57,730000
2,974006	172,278629	136,484	-0,066503	22,730000	57,730000
2,973026	171,697109	136,584	-0,066735	22,730000	57,730000
2,972005	170,824827	136,684	-0,067082	22,730000	57,730000
2,971013	170,118169	136,784	-0,067363	22,730000	57,730000
2,969976	169,487575	136,884	-0,067614	22,720000	57,710000
2,969002	169,162463	136,985	-0,067744	22,720000	57,710000
2,968007	168,448443	137,085	-0,068028	22,720000	57,710000
2,966974	167,127140	137,185	-0,068554	22,720000	57,710000
2,966011	166,436430	137,285	-0,068829	22,720000	57,710000
2,965014	165,954283	137,386	-0,069021	22,720000	57,710000
2,963961	165,905210	137,486	-0,069040	22,720000	57,710000
2,962994	165,156839	137,586	-0,069338	22,720000	57,710000
2,961989	164,775292	137,686	-0,069490	22,720000	57,710000
2,960977	164,209720	137,787	-0,069715	22,720000	57,710000
2,960039	163,386513	137,888	-0,070042	22,720000	57,710000
2,958977	162,738743	137,988	-0,070300	22,720000	57,710000
2,957965	162,157222	138,089	-0,070532	22,720000	57,710000
2,957027	161,450563	138,189	-0,070813	22,720000	57,710000
2,955961	160,527982	138,289	-0,071180	22,720000	57,710000
2,954949	160,369720	138,389	-0,071243	22,720000	57,710000
2,954006	159,506026	138,489	-0,071587	22,720000	57,710000
2,952989	158,035048	138,589	-0,072172	22,720000	57,710000
2,952050	157,685400	138,689	-0,072312	22,720000	57,710000
2,951018	157,112467	138,790	-0,072540	22,720000	57,710000
2,950028	155,998498	138,890	-0,072983	22,730000	57,700000
2,948984	156,223010	138,990	-0,072894	22,730000	57,700000
2,947994	155,416977	139,090	-0,073214	22,730000	57,700000
2,946949	155,250128	139,190	-0,073281	22,730000	57,700000
2,946027	153,996300	139,290	-0,073780	22,730000	57,700000
2,944974	153,780376	139,390	-0,073866	22,730000	57,700000
2,943991	153,065130	139,490	-0,074150	22,730000	57,700000
2,943058	152,490970	139,590	-0,074379	22,730000	57,700000
2,942012	152,234561	139,690	-0,074481	22,730000	57,700000
2,941026	151,352465	139,790	-0,074832	22,730000	57,700000
2,940002	150,912031	139,890	-0,075007	22,730000	57,700000
2,938979	149,616491	139,990	-0,075523	22,730000	57,700000
2,938011	149,524478	140,090	-0,075560	22,730000	57,700000
2,936972	149,059507	140,191	-0,075745	22,730000	57,700000
2,935982	147,372605	140,291	-0,076416	22,730000	57,700000
2,935029	146,782496	140,392	-0,076651	22,730000	57,700000
2,934007	146,192388	140,492	-0,076886	22,730000	57,700000
2,933008	145,743365	140,592	-0,077064	22,730000	57,700000
2,932032	145,069832	140,692	-0,077333	22,730000	57,700000
2,931014	145,111544	140,793	-0,077316	22,730000	57,700000
2,929994	143,915378	140,894	-0,077792	22,730000	57,740000
2,929009	144,173014	140,994	-0,077689	22,730000	57,740000
2,928010	142,651735	141,094	-0,078295	22,730000	57,740000
2,926967	142,120515	141,195	-0,078506	22,730000	57,740000
2,926043	141,970841	141,296	-0,078566	22,730000	57,740000
2,925063	140,881409	141,396	-0,079000	22,730000	57,740000
2,923958	140,474099	141,497	-0,079162	22,730000	57,740000
2,922981	139,917115	141,597	-0,079383	22,730000	57,740000
2,921976	139,220271	141,697	-0,079661	22,730000	57,740000
2,921001	138,505025	141,797	-0,079945	22,730000	57,740000
2,919998	138,238801	141,898	-0,080051	22,730000	57,740000
2,919016	136,983747	141,998	-0,080551	22,730000	57,740000
2,917995	136,784999	142,098	-0,080630	22,730000	57,740000
2,917061	136,593613	142,199	-0,080706	22,730000	57,740000
2,915992	135,695568	142,299	-0,081063	22,730000	57,740000
2,914994	134,457689	142,399	-0,081556	22,730000	57,740000
2,913999	134,133804	142,500	-0,081685	22,730000	57,740000
2,912993	133,883529	142,600	-0,081785	22,730000	57,740000
2,912053	133,086085	142,700	-0,082102	22,730000	57,740000
2,910994	132,654238	142,800	-0,082274	22,730000	57,740000
2,909986	132,271465	142,900	-0,082426	22,720000	57,750000
2,909022	131,548858	143,000	-0,082714	22,720000	57,750000
2,908013	130,892500	143,100	-0,082975	22,720000	57,750000
2,907041	130,244730	143,200	-0,083233	22,720000	57,750000
2,905999	129,604320	143,300	-0,083488	22,720000	57,750000
2,905024	128,457228	143,400	-0,083944	22,720000	57,750000
2,903969	127,717445	143,500	-0,084239	22,720000	57,750000
2,903036	127,193585	143,601	-0,084447	22,720000	57,750000
2,902010	127,261061	143,701	-0,084420	22,720000	57,750000
2,901005	126,371604	143,802	-0,084774	22,720000	57,750000
2,899940	126,155681	143,902	-0,084860	22,720000	57,750000
2,898979	125,008588	144,003	-0,085317	22,720000	57,750000
2,897983	124,766901	144,103	-0,085413	22,720000	57,750000
2,896980	123,737584	144,204	-0,085823	22,720000	57,750000
2,895996	123,363399	144,305	-0,085972	22,720000	57,750000
2,895005	122,947501	144,406	-0,086137	22,720000	57,750000
2,894006	122,223667	144,506	-0,086425	22,720000	57,750000
2,893012	121,626197	144,606	-0,086663	22,720000	57,750000
2,892054	121,011552	144,706	-0,086908	22,720000	57,750000
2,891040	120,637367	144,806	-0,087057	22,720000	57,750000
2,889986	119,838695	144,906	-0,087375	22,720000	57,725000
2,888999	119,565111	145,007	-0,087483	22,720000	57,725000
2,887998	118,294107	145,107	-0,087989	22,720000	57,725000
2,886995	117,853673	145,207	-0,088165	22,720000	57,725000
2,886018	117,528561	145,308	-0,088294	22,720000	57,725000
2,885005	116,282094	145,408	-0,088790	22,720000	57,725000
2,884028	115,343564	145,508	-0,089164	22,720000	57,725000
2,882992	114,903129	145,608	-0,089339	22,720000	57,725000
2,881990	114,038209	145,708	-0,089683	22,720000	57,725000
2,881001	113,439512	145,808	-0,089921	22,720000	57,725000
2,879995	112,974541	145,908	-0,090106	22,720000	57,725000
2,879028	112,218809	146,008	-0,090407	22,720000	57,725000
2,878011	111,851985	146,109	-0,090553	22,720000	57,725000
2,877047	111,212802	146,210	-0,090808	22,720000	57,725000
2,876061	110,672994	146,310	-0,091022	22,720000	57,725000
2,875006	109,882911	146,410	-0,091337	22,720000	57,725000
2,874013	109,318565	146,511	-0,091562	22,720000	57,725000
2,873045	108,911255	146,611	-0,091724	22,720000	57,725000
2,871973	107,962910	146,711	-0,092101	22,720000	57,725000
2,871013	107,971498	146,812	-0,092098	22,720000	57,725000
2,869996	107,672150	146,912	-0,092217	22,720000	57,725000
2,869045	106,550821	147,012	-0,092663	22,720000	57,725000
2,868076	105,577939	147,112	-0,093050	22,720000	57,725000
2,866979	105,187804	147,212	-0,093206	22,720000	57,725000
2,866028	104,963293	147,313	-0,093295	22,720000	57,725000
2,865034	104,065248	147,413	-0,093652	22,720000	57,725000
2,864024	103,175791	147,513	-0,094006	22,720000	57,725000
2,862965	103,142666	147,613	-0,094020	22,720000	57,725000
2,861940	102,370986	147,713	-0,094327	22,720000	57,725000
2,861036	102,370986	147,814	-0,094327	22,720000	57,725000
2,860052	101,464353	147,914	-0,094688	22,720000	57,725000
2,859008	100,700033	148,014	-0,094992	22,720000	57,725000
2,857981	100,242423	148,115	-0,095174	22,720000	57,725000
2,857028	99,345605	148,215	-0,095531	22,720000	57,725000
2,856004	98,971420	148,315	-0,095680	22,720000	57,725000
2,854986	98,506448	148,415	-0,095865	22,720000	57,725000
2,854060	97,758077	148,515	-0,096163	22,720000	57,725000
2,853027	97,084544	148,615	-0,096431	22,720000	57,725000
2,852003	95,754652	148,715	-0,096960	22,720000	57,725000
2,851012	95,987751	148,815	-0,096867	22,740000	57,715000
2,849967	95,381694	148,915	-0,097108	22,740000	57,715000
2,848988	94,492237	149,016	-0,097462	22,740000	57,715000
2,847995	94,450524	149,117	-0,097479	22,740000	57,715000
2,846994	93,212645	149,217	-0,097972	22,740000	57,715000
2,846021	92,862997	149,317	-0,098111	22,740000	57,715000
2,845013	92,588185	149,417	-0,098220	22,740000	57,715000
2,843999	91,931827	149,517	-0,098481	22,740000	57,715000
2,842962	91,042370	149,618	-0,098835	22,740000	57,715000
2,842035	90,560223	149,718	-0,099027	22,740000	57,715000
2,841012	89,297807	149,818	-0,099530	22,740000	57,715000
2,840023	89,139545	149,918	-0,099593	22,740000	57,715000
2,839038	88,175251	150,019	-0,099977	22,740000	57,715000
2,838044	87,577781	150,119	-0,100214	22,740000	57,715000
2,837037	87,477181	150,219	-0,100254	22,740000	57,715000
2,836100	86,970497	150,319	-0,100456	22,740000	57,715000
2,835019	86,305551	150,420	-0,100721	22,740000	57,715000
2,833992	85,541232	150,520	-0,101025	22,740000	57,715000
2,833012	85,225934	150,620	-0,101150	22,740000	57,715000
2,831978	84,427263	150,720	-0,101468	22,740000	57,715000
2,831029	83,904631	150,821	-0,101676	22,730000	57,730000
2,830046	83,031122	150,921	-0,102024	22,730000	57,730000
2,828989	82,931749	151,022	-0,102063	22,730000	57,730000
2,828017	82,059467	151,122	-0,102411	22,730000	57,730000
2,827000	80,828949	151,223	-0,102900	22,730000	57,730000
2,826026	79,989793	151,323	-0,103234	22,730000	57,730000
2,825061	79,533409	151,423	-0,103416	22,730000	57,730000
2,824042	78,875824	151,523	-0,103678	22,730000	57,730000
2,823014	78,468514	151,623	-0,103840	22,730000	57,730000
2,821972	77,704195	151,723	-0,104144	22,730000	57,730000
2,821040	77,437971	151,823	-0,104250	22,730000	57,730000
2,820096	76,474904	151,923	-0,104633	22,730000	57,730000
2,818989	76,889575	152,023	-0,104468	22,730000	57,730000
2,818042	76,133843	152,123	-0,104769	22,730000	57,730000
2,817042	75,627159	152,224	-0,104971	22,730000	57,730000
2,816004	75,086124	152,324	-0,105186	22,730000	57,730000
2,815010	74,238379	152,424	-0,105523	22,730000	57,730000
2,814004	73,383274	152,524	-0,105864	22,730000	57,730000
2,813062	73,141587	152,624	-0,105960	22,730000	57,730000
2,812065	72,434929	152,725	-0,106241	22,730000	57,730000
2,810989	72,011670	152,826	-0,106410	22,730000	57,700000
2,809984	71,363900	152,926	-0,106667	22,730000	57,700000
2,809023	70,615529	153,026	-0,106965	22,730000	57,700000
2,808022	70,216807	153,126	-0,107124	22,730000	57,700000
2,807003	68,994877	153,226	-0,107610	22,730000	57,700000
2,805993	68,679580	153,326	-0,107736	22,730000	57,700000
2,805024	67,673573	153,426	-0,108136	22,730000	57,700000
2,803962	67,640448	153,526	-0,108149	22,730000	57,700000
2,802979	66,735042	153,626	-0,108510	22,730000	57,700000
2,802079	66,286020	153,726	-0,108688	22,730000	57,700000
2,800961	65,744985	153,826	-0,108904	22,730000	57,700000
2,800004	65,280013	153,926	-0,109089	22,730000	57,700000
2,799036	64,456806	154,027	-0,109417	22,730000	57,700000
2,798074	64,299770	154,127	-0,109479	22,730000	57,700000
2,797001	63,833572	154,227	-0,109665	22,730000	57,700000
2,796014	62,977240	154,327	-0,110005	22,730000	57,700000
2,795011	62,287757	154,427	-0,110280	22,730000	57,700000
2,793982	61,798249	154,527	-0,110475	22,730000	57,700000
2,793015	61,215501	154,627	-0,110707	22,730000	57,700000
2,792038	60,717405	154,728	-0,110905	22,730000	57,700000
2,791016	59,737162	154,829	-0,111295	22,730000	57,700000
2,790028	59,188766	154,929	-0,111513	22,730000	57,700000
2,789053	58,856293	155,029	-0,111646	22,730000	57,700000
2,787998	58,041673	155,129	-0,111970	22,730000	57,700000
2,787052	57,484689	155,229	-0,112191	22,730000	57,700000
2,785954	56,894580	155,329	-0,112426	22,730000	57,700000
2,784993	56,579283	155,431	-0,112552	22,730000	57,700000
2,783995	55,956050	155,531	-0,112800	22,730000	57,700000
2,783033	55,564689	155,631	-0,112956	22,730000	57,700000
2,782019	54,817545	155,731	-0,113253	22,730000	57,700000
2,781054	53,894963	155,833	-0,113620	22,730000	57,700000
2,780017	53,005506	155,933	-0,113974	22,730000	57,700000
2,779034	52,257135	156,034	-0,114272	22,730000	57,700000
2,778038	51,900126	156,134	-0,114414	22,730000	57,700000
2,777060	51,442515	156,234	-0,114596	22,730000	57,700000
2,775980	50,678196	156,335	-0,114900	22,730000	57,700000
2,775044	50,885531	156,435	-0,114818	22,730000	57,700000
2,774016	50,312598	156,535	-0,115046	22,730000	57,700000
2,773045	49,623116	156,635	-0,115320	22,730000	57,700000
2,771952	49,015831	156,735	-0,115562	22,730000	57,700000
2,770987	48,617109	156,836	-0,115721	22,720000	57,680000
2,770007	47,877326	156,936	-0,116015	22,720000	57,680000
2,769033	47,320342	157,036	-0,116237	22,720000	57,680000
2,768047	46,731460	157,137	-0,116471	22,720000	57,680000
2,767016	45,525479	157,237	-0,116951	22,720000	57,680000
2,766033	45,210182	157,338	-0,117077	22,720000	57,680000
2,765030	44,369798	157,438	-0,117411	22,720000	57,680000
2,764034	43,688904	157,538	-0,117682	22,720000	57,680000
2,762997	43,198169	157,638	-0,117877	22,720000	57,680000
2,762011	42,541811	157,738	-0,118139	22,720000	57,680000
2,760984	42,209338	157,838	-0,118271	22,720000	57,680000
2,760057	41,927165	157,938	-0,118383	22,720000	57,680000
2,758995	41,761542	158,038	-0,118449	22,720000	57,680000
2,758020	40,863497	158,138	-0,118807	22,720000	57,680000
2,757061	40,522436	158,238	-0,118942	22,720000	57,680000
2,756013	39,742168	158,339	-0,119253	22,720000	57,680000
2,755003	39,192545	158,439	-0,119472	22,720000	57,680000
2,754066	38,577899	158,539	-0,119716	22,720000	57,680000
2,753052	37,871241	158,639	-0,119998	22,720000	57,680000
2,752021	37,173171	158,739	-0,120275	22,720000	57,680000
2,751029	36,283713	158,839	-0,120629	22,720000	57,680000
2,750043	35,294883	158,939	-0,121023	22,720000	57,680000
2,749024	34,796787	159,039	-0,121221	22,720000	57,680000
2,748021	33,915917	159,139	-0,121572	22,720000	57,680000
2,747046	33,592032	159,239	-0,121701	22,720000	57,680000
2,746037	33,341758	159,340	-0,121800	22,720000	57,680000
2,744997	32,361515	159,440	-0,122190	22,720000	57,680000
2,744010	32,013093	159,540	-0,122329	22,720000	57,680000
2,742980	32,004505	159,641	-0,122333	22,720000	57,680000
2,742080	31,381272	159,742	-0,122581	22,720000	57,680000
2,741078	30,949425	159,842	-0,122752	22,720000	57,680000
2,740003	29,835457	159,942	-0,123196	22,720000	57,680000
2,739029	29,502984	160,042	-0,123328	22,720000	57,680000
2,738056	28,996300	160,142	-0,123530	22,720000	57,680000
2,737089	28,472440	160,242	-0,123738	22,720000	57,680000
2,736010	27,525322	160,343	-0,124115	22,720000	57,680000
2,735079	27,092248	160,443	-0,124288	22,720000	57,680000
2,734011	26,253092	160,544	-0,124622	22,720000	57,680000
2,733005	26,270267	160,644	-0,124615	22,720000	57,680000
2,732014	24,874126	160,744	-0,125170	22,720000	57,680000
2,731068	24,715864	160,844	-0,125233	22,720000	57,695000
2,730035	24,059507	160,944	-0,125495	22,720000	57,695000
2,729059	23,544235	161,045	-0,125700	22,720000	57,695000
2,728032	23,477986	161,145	-0,125726	22,720000	57,695000
2,727023	22,562765	161,246	-0,126090	22,720000	57,695000
2,726019	21,948120	161,346	-0,126335	22,720000	57,695000
2,725039	21,450024	161,446	-0,126533	22,720000	57,695000
2,724041	21,383774	161,546	-0,126560	22,720000	57,695000
2,723003	20,020758	161,646	-0,127102	22,720000	57,695000
2,722043	20,136081	161,746	-0,127056	22,720000	57,695000
2,720982	18,865077	161,847	-0,127562	22,720000	57,695000
2,720029	18,708042	161,947	-0,127625	22,720000	57,695000
2,719028	17,859071	162,047	-0,127962	22,720000	57,695000
2,718061	17,510649	162,148	-0,128101	22,720000	57,695000
2,717020	16,878828	162,248	-0,128353	22,720000	57,695000
2,716036	16,554943	162,348	-0,128481	22,720000	57,695000
2,714950	15,707198	162,448	-0,128819	22,720000	57,695000
2,714050	14,485268	162,549	-0,129305	22,720000	57,695000
2,713029	13,811734	162,649	-0,129573	22,720000	57,695000
2,712066	13,978584	162,749	-0,129507	22,720000	57,695000
2,711028	13,529562	162,849	-0,129686	22,730000	57,715000
2,710020	12,956629	162,949	-0,129914	22,730000	57,715000
2,709082	12,258558	163,050	-0,130191	22,730000	57,715000
2,708034	11,635325	163,150	-0,130439	22,730000	57,715000
2,707027	11,327389	163,250	-0,130562	22,730000	57,715000
2,706037	10,770405	163,350	-0,130784	22,730000	57,715000
2,705015	10,164347	163,450	-0,131025	22,730000	57,715000
2,704071	9,449101	163,550	-0,131310	22,730000	57,715000
2,703038	8,376845	163,650	-0,131736	22,730000	57,715000
2,702044	7,612526	163,750	-0,132041	22,730000	57,715000
2,701053	7,854212	163,850	-0,131944	22,730000	57,715000
2,700054	7,230979	163,950	-0,132192	22,730000	57,715000
2,699064	6,540270	164,050	-0,132467	22,730000	57,715000
2,698020	6,224973	164,150	-0,132593	22,730000	57,715000
2,697009	5,534263	164,250	-0,132868	22,730000	57,715000
2,696015	4,271848	164,351	-0,133370	22,730000	57,715000
2,695042	3,972499	164,451	-0,133489	22,730000	57,715000
2,694057	3,124755	164,552	-0,133827	22,730000	57,715000
2,693036	2,743208	164,652	-0,133979	22,730000	57,715000
2,692033	2,144512	164,752	-0,134217	22,730000	57,715000
2,691019	1,596115	164,852	-0,134435	22,730000	57,715000
2,690008	0,772908	164,953	-0,134763	22,730000	57,715000
2,689040	0,374185	165,053	-0,134921	22,730000	57,715000
2,688021	-0,092013	165,154	-0,135107	22,730000	57,715000
2,687026	0,017176	165,254	-0,135063	22,730000	57,715000
2,686038	-0,656358	165,354	-0,135332	22,730000	57,715000
2,685028	-1,138505	165,454	-0,135523	22,730000	57,715000
2,684030	-1,686901	165,555	-0,135742	22,730000	57,715000
2,682991	-2,169048	165,655	-0,135934	22,730000	57,715000
2,682056	-2,576358	165,755	-0,136096	22,730000	57,715000
2,681047	-3,831413	165,855	-0,136595	22,730000	57,715000
2,680011	-4,139349	165,956	-0,136718	22,730000	57,715000
2,678977	-4,803068	166,057	-0,136982	22,730000	57,715000
2,678013	-5,236142	166,157	-0,137154	22,730000	57,715000
2,677033	-6,024998	166,258	-0,137468	22,730000	57,715000
2,676034	-6,831030	166,359	-0,137789	22,730000	57,715000
2,674981	-7,213803	166,459	-0,137941	22,730000	57,715000
2,673974	-7,662826	166,559	-0,138120	22,730000	57,715000
2,673011	-8,094673	166,660	-0,138292	22,730000	57,715000
2,672087	-8,592769	166,760	-0,138490	22,730000	57,715000
2,671057	-8,817280	166,861	-0,138580	22,730000	57,685000
2,670050	-10,047798	166,961	-0,139069	22,730000	57,685000
2,669019	-10,047798	167,062	-0,139069	22,730000	57,685000
2,668016	-11,294264	167,162	-0,139565	22,730000	57,685000
2,667023	-11,277089	167,262	-0,139559	22,730000	57,685000
2,666059	-11,743287	167,362	-0,139744	22,730000	57,685000
2,665027	-12,340757	167,462	-0,139982	22,730000	57,685000
2,663996	-12,673229	167,562	-0,140114	22,730000	57,685000
2,663022	-13,479262	167,662	-0,140435	22,730000	57,685000
2,662013	-14,452144	167,763	-0,140822	22,730000	57,685000
2,660984	-14,219044	167,864	-0,140729	22,730000	57,685000
2,660012	-14,868041	167,964	-0,140988	22,730000	57,685000
2,659032	-15,491275	168,065	-0,141236	22,730000	57,685000
2,658033	-16,812579	168,165	-0,141762	22,730000	57,685000
2,657016	-16,488693	168,266	-0,141633	22,730000	57,685000
2,656031	-16,903364	168,366	-0,141798	22,730000	57,685000
2,655024	-17,726572	168,466	-0,142125	22,730000	57,685000
2,654078	-18,814777	168,566	-0,142559	22,730000	57,685000
2,653056	-19,322688	168,666	-0,142761	22,730000	57,685000
2,652030	-19,155838	168,767	-0,142694	22,730000	57,685000
2,651047	-19,763122	168,868	-0,142936	22,730000	57,685000
2,650065	-21,142087	168,969	-0,143485	22,730000	57,685000
2,649041	-21,267225	169,069	-0,143535	22,730000	57,685000
2,648010	-22,247468	169,169	-0,143925	22,730000	57,685000
2,647043	-22,637602	169,269	-0,144080	22,730000	57,685000
2,646031	-23,377385	169,370	-0,144375	22,730000	57,685000
2,644984	-23,784695	169,470	-0,144537	22,730000	57,685000
2,643996	-24,656976	169,570	-0,144884	22,730000	57,685000
2,643065	-24,059507	169,671	-0,144646	22,730000	57,685000
2,641989	-25,305973	169,771	-0,145142	22,730000	57,685000
2,641066	-25,513309	169,871	-0,145225	22,730000	57,685000
2,640009	-25,621270	169,971	-0,145268	22,730000	57,685000
2,639081	-25,904670	170,071	-0,145380	22,730000	57,685000
2,638095	-27,508146	170,171	-0,146019	22,730000	57,685000
2,636965	-27,492197	170,271	-0,146012	22,730000	57,685000
2,636017	-28,148555	170,372	-0,146273	22,730000	57,685000
2,635021	-28,937412	170,472	-0,146587	22,730000	57,685000
2,634040	-29,144747	170,572	-0,146670	22,730000	57,685000
2,632997	-29,635482	170,673	-0,146865	22,730000	57,685000
2,631998	-30,474639	170,773	-0,147199	22,730000	57,685000
2,631012	-31,181297	170,873	-0,147480	22,720000	57,680000
2,630001	-31,280671	170,973	-0,147520	22,720000	57,680000
2,629031	-32,161540	171,073	-0,147871	22,720000	57,680000
2,628031	-32,386051	171,174	-0,147960	22,720000	57,680000
2,627010	-32,636326	171,275	-0,148060	22,720000	57,680000
2,626071	-33,574857	171,375	-0,148433	22,720000	57,680000
2,625025	-33,583445	171,476	-0,148437	22,720000	57,680000
2,624049	-33,715943	171,576	-0,148489	22,720000	57,680000
2,623033	-34,746486	171,676	-0,148899	22,720000	57,680000
2,622051	-35,328007	171,776	-0,149131	22,720000	57,680000
2,621020	-35,569694	171,876	-0,149227	22,720000	57,680000
2,620089	-36,208876	171,976	-0,149481	22,720000	57,680000
2,619056	-36,757273	172,076	-0,149700	22,720000	57,680000
2,618092	-37,181758	172,177	-0,149869	22,720000	57,680000
2,617046	-37,371918	172,277	-0,149944	22,720000	57,680000
2,616030	-38,012327	172,377	-0,150199	22,720000	57,680000
2,615042	-38,628200	172,477	-0,150444	22,720000	57,680000
2,614059	-39,326270	172,577	-0,150722	22,720000	57,680000
2,613044	-39,575318	172,677	-0,150821	22,720000	57,680000
2,612043	-40,115126	172,777	-0,151036	22,720000	57,680000
2,611042	-40,647574	172,877	-0,151248	22,730000	57,715000
2,610057	-41,121133	172,978	-0,151437	22,730000	57,715000
2,609023	-41,694066	173,078	-0,151665	22,730000	57,715000
2,608021	-42,383549	173,178	-0,151939	22,730000	57,715000
2,607024	-42,625236	173,279	-0,152035	22,730000	57,715000
2,606065	-43,081619	173,379	-0,152217	22,730000	57,715000
2,605061	-43,739204	173,479	-0,152479	22,730000	57,715000
2,604074	-43,962488	173,579	-0,152567	22,730000	57,715000
2,603021	-44,728035	173,679	-0,152872	22,730000	57,715000
2,602046	-44,902246	173,780	-0,152941	22,730000	57,715000
2,601063	-45,633441	173,880	-0,153232	22,730000	57,715000
2,600047	-45,915613	173,980	-0,153345	22,730000	57,715000
2,599095	-46,531486	174,080	-0,153590	22,730000	57,715000
2,598101	-47,344879	174,180	-0,153914	22,730000	57,715000
2,597000	-48,234336	174,280	-0,154268	22,730000	57,715000
2,596004	-48,575397	174,380	-0,154403	22,730000	57,715000
2,595023	-49,007243	174,480	-0,154575	22,730000	57,715000
2,594066	-49,073492	174,580	-0,154602	22,730000	57,715000
2,592979	-49,273467	174,681	-0,154681	22,730000	57,715000
2,592045	-49,729850	174,781	-0,154863	22,730000	57,715000
2,591064	-50,503985	174,881	-0,155171	22,730000	57,715000
2,590047	-50,678196	174,982	-0,155240	22,730000	57,715000
2,589024	-51,467052	175,082	-0,155554	22,730000	57,715000
2,588051	-51,633902	175,182	-0,155621	22,730000	57,715000
2,587037	-52,231372	175,282	-0,155858	22,730000	57,715000
2,586034	-53,611564	175,382	-0,156408	22,730000	57,715000
2,585016	-53,312215	175,482	-0,156289	22,730000	57,715000
2,584104	-53,503602	175,582	-0,156365	22,730000	57,715000
2,583079	-54,318222	175,683	-0,156689	22,730000	57,715000
2,582014	-55,714363	175,783	-0,157245	22,730000	57,715000
2,581075	-55,397839	175,883	-0,157119	22,730000	57,715000
2,580040	-55,764663	175,983	-0,157265	22,730000	57,715000
2,579021	-56,354772	176,084	-0,157500	22,730000	57,715000
2,578047	-57,168165	176,184	-0,157823	22,730000	57,715000
2,577072	-57,368140	176,284	-0,157903	22,730000	57,715000
2,576044	-58,339795	176,384	-0,158290	22,730000	57,715000
2,575037	-58,830530	176,484	-0,158485	22,730000	57,715000
2,573998	-59,396102	176,584	-0,158710	22,730000	57,715000
2,573094	-60,010747	176,685	-0,158955	22,730000	57,715000
2,572050	-60,451182	176,785	-0,159130	22,730000	57,715000
2,571057	-61,116128	176,885	-0,159395	22,720000	57,670000
2,570037	-60,717405	176,985	-0,159236	22,720000	57,670000
2,569089	-61,332051	177,085	-0,159480	22,720000	57,670000
2,568073	-61,582326	177,185	-0,159580	22,720000	57,670000
2,567058	-62,080422	177,286	-0,159778	22,720000	57,670000
2,566037	-63,459387	177,387	-0,160327	22,720000	57,670000
2,565001	-63,003003	177,487	-0,160146	22,720000	57,670000
2,564048	-63,758735	177,587	-0,160446	22,720000	57,670000
2,563100	-64,249470	177,687	-0,160642	22,720000	57,670000
2,562051	-64,764742	177,787	-0,160847	22,720000	57,670000
2,561048	-64,956128	177,887	-0,160923	22,720000	57,670000
2,560056	-66,028384	177,987	-0,161350	22,720000	57,670000
2,559059	-66,251668	178,087	-0,161438	22,720000	57,670000
2,558040	-66,784116	178,187	-0,161650	22,720000	57,670000
2,557015	-67,099413	178,287	-0,161776	22,720000	57,670000
2,556022	-66,841777	178,387	-0,161673	22,720000	57,670000
2,555103	-67,997458	178,487	-0,162133	22,720000	57,670000
2,554056	-68,504142	178,587	-0,162335	22,720000	57,670000
2,553016	-68,986289	178,687	-0,162527	22,720000	57,670000
2,551989	-68,712704	178,787	-0,162418	22,720000	57,670000
2,551032	-68,886915	178,887	-0,162487	22,730000	57,700000
2,550040	-70,216807	178,987	-0,163017	22,730000	57,700000
2,549027	-69,884334	179,087	-0,162884	22,730000	57,700000
2,548033	-70,424142	179,187	-0,163099	22,730000	57,700000
2,547042	-70,906289	179,287	-0,163291	22,730000	57,700000
2,546037	-71,811695	179,387	-0,163651	22,730000	57,700000
2,545035	-72,418980	179,487	-0,163893	22,730000	57,700000
2,544056	-72,668028	179,587	-0,163992	22,730000	57,700000
2,543042	-72,917076	179,687	-0,164091	22,730000	57,700000
2,542026	-72,983325	179,788	-0,164118	22,730000	57,700000
2,541049	-73,540309	179,888	-0,164339	22,730000	57,700000
2,540021	-73,374686	179,988	-0,164273	22,730000	57,700000
2,539027	-73,881370	180,088	-0,164475	22,730000	57,700000
2,538029	-74,670226	180,188	-0,164789	22,730000	57,700000
2,537073	-74,920501	180,288	-0,164889	22,730000	57,700000
2,536094	-75,343760	180,388	-0,165057	22,730000	57,700000
2,535097	-75,808731	180,488	-0,165242	22,730000	57,700000
2,534083	-75,984169	180,588	-0,165312	22,730000	57,700000
2,533052	-76,316642	180,689	-0,165444	22,730000	57,700000
2,532051	-76,665064	180,789	-0,165583	22,730000	57,700000
2,531040	-77,072374	180,889	-0,165745	22,730000	57,715000
2,530010	-77,820744	180,989	-0,166043	22,730000	57,715000
2,529057	-78,269767	181,089	-0,166222	22,730000	57,715000
2,528071	-78,410853	181,190	-0,166278	22,730000	57,715000
2,527054	-79,091748	181,291	-0,166549	22,730000	57,715000
2,526025	-79,058623	181,391	-0,166536	22,730000	57,715000
2,525033	-79,307671	181,492	-0,166635	22,730000	57,715000
2,524010	-79,441396	181,593	-0,166688	22,730000	57,715000
2,523049	-80,346802	181,693	-0,167048	22,730000	57,715000
2,522063	-80,454764	181,793	-0,167091	22,730000	57,715000
2,521047	-81,377346	181,894	-0,167458	22,730000	57,715000
2,520041	-81,044873	181,994	-0,167326	22,730000	57,715000
2,519058	-81,626394	182,095	-0,167558	22,730000	57,715000
2,518051	-82,000579	182,195	-0,167707	22,730000	57,715000
2,517060	-82,399301	182,295	-0,167865	22,730000	57,715000
2,516101	-82,441014	182,395	-0,167882	22,730000	57,715000
2,515033	-83,006586	182,496	-0,168107	22,730000	57,715000
2,514012	-83,513269	182,597	-0,168309	22,730000	57,715000
2,513045	-83,903404	182,697	-0,168464	22,730000	57,715000
2,512032	-84,269001	182,797	-0,168609	22,730000	57,715000
2,511029	-84,643187	182,898	-0,168758	22,730000	57,715000
2,510013	-85,433270	182,998	-0,169073	22,730000	57,715000
2,508995	-85,898241	183,098	-0,169258	22,730000	57,715000
2,508038	-86,155877	183,198	-0,169360	22,730000	57,715000
2,507036	-86,662561	183,298	-0,169562	22,730000	57,715000
2,506110	-86,979085	183,398	-0,169688	22,730000	57,715000
2,505039	-86,655200	183,498	-0,169559	22,730000	57,715000
2,504070	-87,917615	183,599	-0,170062	22,730000	57,715000
2,503079	-87,311558	183,699	-0,169820	22,730000	57,715000
2,502031	-88,175251	183,799	-0,170164	22,730000	57,715000
2,501031	-88,375226	183,900	-0,170244	22,730000	57,715000
2,500065	-89,621692	184,001	-0,170740	22,730000	57,715000
2,499025	-89,297807	184,101	-0,170611	22,730000	57,715000
2,498043	-89,597156	184,201	-0,170730	22,730000	57,715000
2,497058	-89,987290	184,302	-0,170885	22,730000	57,715000
2,496077	-90,610523	184,402	-0,171133	22,730000	57,715000
2,495045	-91,499980	184,502	-0,171487	22,730000	57,715000
2,494024	-91,682779	184,603	-0,171560	22,730000	57,715000
2,493080	-92,429923	184,703	-0,171857	22,730000	57,715000
2,492072	-92,405386	184,804	-0,171848	22,730000	57,715000
2,491039	-92,671610	184,905	-0,171954	22,710000	57,680000
2,490073	-93,103457	185,005	-0,172125	22,710000	57,680000
2,489103	-93,801527	185,106	-0,172403	22,710000	57,680000
2,488061	-94,192888	185,207	-0,172559	22,710000	57,680000
2,487028	-94,757233	185,307	-0,172784	22,710000	57,680000
2,486054	-95,488428	185,407	-0,173075	22,710000	57,680000
2,485068	-95,430767	185,507	-0,173052	22,710000	57,680000
2,484052	-96,054000	185,607	-0,173300	22,710000	57,680000
2,483093	-96,518972	185,707	-0,173485	22,710000	57,680000
2,481989	-96,769247	185,807	-0,173584	22,710000	57,680000
2,481049	-97,201093	185,907	-0,173756	22,710000	57,680000
2,480012	-97,840276	186,007	-0,174011	22,710000	57,680000
2,479032	-98,256173	186,107	-0,174176	22,710000	57,680000
2,478094	-98,597234	186,208	-0,174312	22,710000	57,680000
2,477017	-98,995956	186,308	-0,174471	22,710000	57,680000
2,476085	-99,495279	186,408	-0,174669	22,710000	57,680000
2,475109	-100,251011	186,508	-0,174970	22,710000	57,680000
2,474045	-99,968838	186,608	-0,174858	22,710000	57,680000
2,473072	-100,740519	186,708	-0,175165	22,710000	57,680000
2,472060	-101,323267	186,808	-0,175397	22,710000	57,680000
2,471099	-101,755113	186,909	-0,175569	22,740000	57,715000
2,470022	-102,120711	187,009	-0,175714	22,740000	57,715000
2,469091	-102,461772	187,110	-0,175850	22,740000	57,715000
2,468035	-102,669107	187,210	-0,175933	22,740000	57,715000
2,467060	-102,951280	187,310	-0,176045	22,740000	57,715000
2,466074	-103,998999	187,410	-0,176462	22,740000	57,715000
2,465057	-103,774488	187,511	-0,176373	22,740000	57,715000
2,464080	-103,816200	187,611	-0,176389	22,740000	57,715000
2,463104	-104,697069	187,712	-0,176740	22,740000	57,715000
2,462110	-105,577939	187,813	-0,177090	22,740000	57,715000
2,461052	-105,469977	187,913	-0,177047	22,740000	57,715000
2,460071	-105,436852	188,013	-0,177034	22,740000	57,715000
2,459106	-106,026961	188,114	-0,177269	22,740000	57,715000
2,458104	-106,949543	188,215	-0,177636	22,740000	57,715000
2,457093	-107,447639	188,316	-0,177834	22,740000	57,715000
2,456037	-107,365440	188,416	-0,177802	22,740000	57,715000
2,455046	-108,561607	188,516	-0,178278	22,740000	57,715000
2,454086	-108,984866	188,616	-0,178446	22,740000	57,715000
2,453079	-109,334514	188,717	-0,178585	22,740000	57,715000
2,452131	-109,857147	188,817	-0,178793	22,740000	57,715000
2,451021	-110,605518	188,917	-0,179091	22,740000	57,715000
2,450061	-110,580981	189,018	-0,179082	22,740000	57,715000
2,449083	-111,345301	189,118	-0,179386	22,740000	57,715000
2,448071	-111,994298	189,218	-0,179644	22,740000	57,715000
2,447058	-112,217582	189,318	-0,179733	22,740000	57,715000
2,446054	-112,375844	189,418	-0,179796	22,740000	57,715000
2,445045	-112,583180	189,518	-0,179878	22,740000	57,715000
2,444082	-113,215001	189,618	-0,180130	22,740000	57,715000
2,443027	-113,639486	189,718	-0,180299	22,740000	57,715000
2,442071	-114,304432	189,819	-0,180563	22,740000	57,715000
2,441070	-114,793940	189,919	-0,180758	22,740000	57,715000
2,440074	-114,910490	190,019	-0,180805	22,740000	57,715000
2,439094	-115,617148	190,120	-0,181086	22,740000	57,715000
2,438069	-116,572855	190,220	-0,181466	22,740000	57,715000
2,437087	-116,880791	190,321	-0,181589	22,740000	57,715000
2,436062	-117,270925	190,421	-0,181744	22,740000	57,715000
2,435103	-117,777609	190,521	-0,181946	22,740000	57,715000
2,434083	-117,878209	190,622	-0,181986	22,740000	57,715000
2,433061	-118,891577	190,722	-0,182389	22,740000	57,715000
2,432030	-119,340599	190,823	-0,182568	22,740000	57,715000
2,431071	-119,581060	190,923	-0,182664	22,730000	57,730000
2,430097	-119,814159	191,023	-0,182756	22,730000	57,730000
2,429055	-120,445980	191,123	-0,183008	22,730000	57,730000
2,428088	-121,267961	191,223	-0,183335	22,730000	57,730000
2,427042	-121,426223	191,324	-0,183398	22,730000	57,730000
2,426061	-122,174594	191,424	-0,183696	22,730000	57,730000
2,425046	-122,215079	191,525	-0,183712	22,730000	57,730000
2,423967	-122,830952	191,625	-0,183957	22,730000	57,730000
2,423095	-122,972038	191,726	-0,184013	22,730000	57,730000
2,422049	-123,711821	191,826	-0,184308	22,730000	57,730000
2,421055	-124,094594	191,926	-0,184460	22,730000	57,730000
2,420027	-124,825789	192,027	-0,184751	22,730000	57,730000
2,419037	-125,597470	192,127	-0,185058	22,730000	57,730000
2,418069	-125,548396	192,228	-0,185039	22,730000	57,730000
2,417083	-126,096793	192,329	-0,185257	22,730000	57,730000
2,416092	-126,695489	192,429	-0,185495	22,730000	57,730000
2,415066	-127,219349	192,529	-0,185704	22,730000	57,730000
2,413987	-127,409508	192,629	-0,185779	22,730000	57,730000
2,413040	-127,917419	192,729	-0,185981	22,730000	57,730000
2,412106	-128,166467	192,829	-0,186081	22,730000	57,715000
2,411089	-128,506301	192,929	-0,186216	22,730000	57,715000
2,410032	-129,163886	193,029	-0,186478	22,730000	57,715000
2,409052	-129,761356	193,129	-0,186715	22,730000	57,715000
2,408043	-130,650813	193,229	-0,187069	22,730000	57,715000
2,407053	-131,382008	193,329	-0,187360	22,730000	57,715000
2,406015	-131,656819	193,430	-0,187470	22,730000	57,715000
2,405119	-132,363478	193,530	-0,187751	22,730000	57,715000
2,404059	-132,769561	193,630	-0,187913	22,730000	57,715000
2,403070	-133,086085	193,731	-0,188039	22,730000	57,715000
2,402091	-133,434507	193,831	-0,188177	22,730000	57,715000
2,401133	-133,585408	193,931	-0,188237	22,730000	57,715000
2,400079	-134,449101	194,031	-0,188581	22,730000	57,715000
2,399067	-134,299427	194,132	-0,188521	22,730000	57,715000
2,398030	-134,755810	194,233	-0,188703	22,730000	57,715000
2,397067	-135,388858	194,333	-0,188955	22,730000	57,715000
2,396069	-135,629318	194,433	-0,189051	22,730000	57,715000
2,395048	-136,618149	194,533	-0,189444	22,730000	57,715000
2,394061	-137,373881	194,634	-0,189745	22,730000	57,715000
2,393028	-137,773830	194,734	-0,189904	22,730000	57,715000
2,392035	-138,155376	194,834	-0,190056	22,720000	57,695000
2,391086	-138,679236	194,934	-0,190265	22,720000	57,695000
2,390038	-138,703773	195,035	-0,190274	22,720000	57,695000
2,389040	-139,793204	195,136	-0,190708	22,720000	57,695000
2,388089	-140,382086	195,237	-0,190942	22,720000	57,695000
2,387067	-140,233639	195,337	-0,190883	22,720000	57,695000
2,386073	-140,715786	195,437	-0,191075	22,720000	57,695000
2,385064	-141,180757	195,537	-0,191260	22,720000	57,695000
2,384087	-141,779454	195,637	-0,191499	22,720000	57,695000
2,383073	-142,484885	195,737	-0,191779	22,720000	57,695000
2,382036	-142,751109	195,837	-0,191885	22,720000	57,695000
2,381061	-143,324042	195,937	-0,192113	22,720000	57,695000
2,380095	-143,847902	196,038	-0,192322	22,720000	57,695000
2,379027	-143,889614	196,138	-0,192338	22,720000	57,695000
2,378030	-144,446598	196,238	-0,192560	22,720000	57,695000
2,377044	-144,986407	196,339	-0,192775	22,720000	57,695000
2,376132	-145,244042	196,440	-0,192877	22,720000	57,695000
2,375052	-145,901627	196,540	-0,193139	22,720000	57,695000
2,374034	-146,084426	196,640	-0,193212	22,720000	57,695000
2,373055	-146,333474	196,740	-0,193311	22,720000	57,695000
2,372047	-146,981244	196,840	-0,193569	22,730000	57,700000
2,371057	-147,397142	196,940	-0,193734	22,730000	57,700000
2,370033	-147,778688	197,040	-0,193886	22,730000	57,700000
2,369049	-148,260835	197,140	-0,194078	22,730000	57,700000
2,368054	-149,209181	197,240	-0,194456	22,730000	57,700000
2,367067	-148,709858	197,340	-0,194257	22,730000	57,700000
2,366054	-150,031162	197,440	-0,194783	22,730000	57,700000
2,365059	-150,355047	197,540	-0,194912	22,730000	57,700000
2,364062	-151,261679	197,640	-0,195272	22,730000	57,700000
2,363070	-151,219967	197,741	-0,195256	22,730000	57,700000
2,362057	-151,336517	197,841	-0,195302	22,730000	57,700000
2,361045	-151,900862	197,942	-0,195527	22,730000	57,700000
2,360076	-152,582983	198,042	-0,195798	22,730000	57,700000
2,359059	-153,139967	198,142	-0,196020	22,730000	57,700000
2,358045	-153,829450	198,242	-0,196294	22,730000	57,700000
2,357055	-154,069910	198,342	-0,196390	22,730000	57,700000
2,356036	-154,950779	198,442	-0,196741	22,730000	57,700000
2,355049	-154,718907	198,542	-0,196648	22,730000	57,700000
2,354058	-155,175291	198,642	-0,196830	22,730000	57,700000
2,353087	-155,291840	198,742	-0,196876	22,730000	57,700000
2,352079	-156,115048	198,843	-0,197204	22,730000	57,700000
2,351097	-156,463470	198,944	-0,197343	22,730000	57,700000
2,350061	-156,879368	199,045	-0,197508	22,730000	57,700000
2,349087	-157,527138	199,145	-0,197766	22,730000	57,700000
2,348037	-158,001924	199,245	-0,197955	22,730000	57,700000
2,347084	-158,301272	199,346	-0,198074	22,730000	57,700000
2,346121	-159,264339	199,446	-0,198458	22,730000	57,700000
2,345066	-159,986946	199,546	-0,198745	22,730000	57,700000
2,344115	-160,361132	199,646	-0,198894	22,730000	57,700000
2,343040	-161,100915	199,746	-0,199188	22,730000	57,700000
2,342085	-161,342602	199,846	-0,199285	22,730000	57,700000
2,341081	-162,155995	199,946	-0,199608	22,730000	57,700000
2,340072	-162,298308	200,046	-0,199665	22,730000	57,700000
2,339021	-162,679854	200,146	-0,199817	22,730000	57,700000
2,338064	-162,481107	200,247	-0,199738	22,730000	57,700000
2,337111	-163,078576	200,347	-0,199976	22,730000	57,700000
2,336059	-163,669912	200,448	-0,200211	22,730000	57,700000
2,335026	-163,985209	200,548	-0,200336	22,730000	57,700000
2,334069	-164,399880	200,648	-0,200501	22,730000	57,700000
2,333034	-164,774066	200,748	-0,200650	22,730000	57,700000
2,332081	-165,115126	200,849	-0,200786	22,720000	57,670000
2,330977	-166,353005	200,949	-0,201279	22,720000	57,670000
2,330086	-166,827791	201,049	-0,201468	22,720000	57,670000
2,329048	-167,209338	201,149	-0,201620	22,720000	57,670000
2,328073	-167,566347	201,249	-0,201762	22,720000	57,670000
2,327114	-167,675536	201,349	-0,201805	22,720000	57,670000
2,326022	-167,533223	201,449	-0,201749	22,720000	57,670000
2,325081	-168,273006	201,549	-0,202043	22,720000	57,670000
2,324053	-168,638603	201,649	-0,202188	22,720000	57,670000
2,323097	-169,245888	201,749	-0,202430	22,720000	57,670000
2,322047	-169,602897	201,850	-0,202572	22,720000	57,670000
2,321115	-170,426105	201,950	-0,202900	22,720000	57,670000
2,320075	-170,882489	202,050	-0,203082	22,720000	57,670000
2,319054	-171,322923	202,150	-0,203257	22,720000	57,670000
2,318053	-172,079882	202,250	-0,203558	22,720000	57,670000
2,317058	-172,611102	202,350	-0,203770	22,720000	57,670000
2,316086	-172,062706	202,450	-0,203551	22,720000	57,670000
2,315064	-172,586566	202,550	-0,203760	22,720000	57,670000
2,314067	-173,500559	202,650	-0,204124	22,720000	57,670000
2,313050	-173,799908	202,750	-0,204243	22,720000	57,670000
2,312040	-174,090668	202,851	-0,204358	22,730000	57,685000
2,311074	-174,440317	202,951	-0,204498	22,730000	57,685000
2,310106	-175,578822	203,051	-0,204951	22,730000	57,685000
2,309079	-175,918656	203,151	-0,205086	22,730000	57,685000
2,308088	-176,202055	203,252	-0,205199	22,730000	57,685000
2,307074	-176,874362	203,352	-0,205466	22,730000	57,685000
2,306031	-177,265723	203,452	-0,205622	22,730000	57,685000
2,305027	-177,814119	203,552	-0,205840	22,730000	57,685000
2,304062	-177,581020	203,652	-0,205748	22,730000	57,685000
2,303083	-177,988330	203,752	-0,205910	22,730000	57,685000
2,302027	-178,719525	203,852	-0,206201	22,730000	57,685000
2,301048	-179,193085	203,952	-0,206389	22,730000	57,685000
2,300050	-179,767244	204,052	-0,206618	22,730000	57,685000
2,299069	-179,767244	204,153	-0,206618	22,730000	57,685000
2,298046	-180,223628	204,254	-0,206799	22,730000	57,685000
2,297061	-180,681238	204,355	-0,206981	22,730000	57,685000
2,296083	-181,055424	204,456	-0,207130	22,730000	57,685000
2,295055	-181,678657	204,557	-0,207378	22,730000	57,685000
2,294006	-181,952242	204,658	-0,207487	22,730000	57,685000
2,293074	-182,500638	204,759	-0,207706	22,730000	57,685000
2,292095	-182,676076	204,859	-0,207775	22,730000	57,730000
2,291070	-183,398683	204,959	-0,208063	22,730000	57,730000
2,290119	-183,531181	205,059	-0,208116	22,730000	57,730000
2,289091	-184,246427	205,160	-0,208400	22,730000	57,730000
2,288071	-184,528600	205,260	-0,208513	22,730000	57,730000
2,287042	-185,741942	205,360	-0,208996	22,730000	57,730000
2,286034	-186,282977	205,460	-0,209211	22,730000	57,730000
2,285076	-186,406888	205,561	-0,209260	22,730000	57,730000
2,284079	-186,464549	205,661	-0,209283	22,730000	57,730000
2,283085	-186,406888	205,761	-0,209260	22,730000	57,730000
2,282019	-187,354006	205,861	-0,209637	22,730000	57,730000
2,281102	-187,246045	205,961	-0,209594	22,730000	57,730000
2,280036	-188,135502	206,061	-0,209948	22,730000	57,730000
2,279093	-188,575936	206,162	-0,210124	22,730000	57,730000
2,278088	-188,742786	206,263	-0,210190	22,730000	57,730000
2,277024	-189,007783	206,364	-0,210295	22,730000	57,730000
2,276035	-189,797866	206,464	-0,210610	22,730000	57,730000
2,275094	-190,071451	206,564	-0,210719	22,730000	57,730000
2,274065	-190,229713	206,665	-0,210782	22,730000	57,730000
2,273046	-190,753573	206,766	-0,210990	22,730000	57,730000
2,272069	-191,169470	206,867	-0,211156	22,730000	57,715000
2,271035	-191,726455	206,967	-0,211377	22,730000	57,715000
2,270062	-191,867541	207,068	-0,211434	22,730000	57,715000
2,269089	-192,806071	207,168	-0,211807	22,730000	57,715000
2,268074	-193,163081	207,269	-0,211949	22,730000	57,715000
2,267009	-193,603516	207,369	-0,212125	22,730000	57,715000
2,266009	-193,570391	207,469	-0,212111	22,730000	57,715000
2,265036	-193,712704	207,569	-0,212168	22,730000	57,715000
2,264089	-193,836615	207,669	-0,212217	22,730000	57,715000
2,263041	-194,301586	207,769	-0,212402	22,730000	57,715000
2,262035	-194,442672	207,869	-0,212458	22,730000	57,715000
2,261028	-194,825446	207,970	-0,212611	22,730000	57,715000
2,260071	-195,598353	208,070	-0,212918	22,730000	57,715000
2,259096	-195,838813	208,170	-0,213014	22,730000	57,715000
2,258056	-195,333356	208,270	-0,212813	22,730000	57,715000
2,257064	-196,214225	208,370	-0,213164	22,730000	57,715000
2,256044	-196,520935	208,470	-0,213286	22,730000	57,715000
2,255049	-196,529523	208,570	-0,213289	22,730000	57,715000
2,254080	-196,919657	208,670	-0,213444	22,730000	57,715000
2,253096	-196,811695	208,772	-0,213401	22,730000	57,715000
2,252073	-197,210417	208,872	-0,213560	22,730000	57,685000
2,251080	-197,360091	208,972	-0,213620	22,730000	57,685000
2,250015	-197,468053	209,072	-0,213663	22,730000	57,685000
2,249105	-197,311018	209,172	-0,213600	22,730000	57,685000
2,248071	-197,360091	209,272	-0,213620	22,730000	57,685000
2,247069	-197,243542	209,372	-0,213573	22,730000	57,685000
2,246065	-197,426341	209,472	-0,213646	22,730000	57,685000
2,245062	-196,936833	209,572	-0,213451	22,730000	57,685000
2,244085	-196,919657	209,672	-0,213444	22,730000	57,685000
2,243036	-196,529523	209,772	-0,213289	22,730000	57,685000
2,242045	-195,963951	209,872	-0,213064	22,730000	57,685000
2,241094	-194,484385	209,972	-0,212475	22,730000	57,685000
2,240097	-186,955284	210,072	-0,209479	22,730000	57,685000
2,239063	-159,821323	210,172	-0,198679	22,730000	57,685000
2,238072	-150,572197	210,273	-0,194998	22,730000	57,685000
2,237040	-147,754152	210,374	-0,193876	22,730000	57,685000
2,236074	-144,653934	210,475	-0,192643	22,730000	57,685000
2,235058	-142,843122	210,575	-0,191922	22,730000	57,685000
2,234027	-141,379505	210,675	-0,191339	22,730000	57,685000
2,233080	-140,350188	210,775	-0,190930	22,730000	57,685000
2,232080	-139,610406	210,876	-0,190635	22,730000	57,685000
2,231065	-138,604399	210,976	-0,190235	22,730000	57,685000
2,230025	-137,948041	211,076	-0,189974	22,730000	57,685000
2,229088	-138,064591	211,176	-0,190020	22,730000	57,685000
2,228035	-137,432769	211,276	-0,189769	22,730000	57,685000
2,227064	-136,999696	211,376	-0,189596	22,730000	57,685000
2,226070	-137,016871	211,476	-0,189603	22,730000	57,685000
2,225014	-137,083121	211,576	-0,189629	22,730000	57,685000
2,224059	-136,634098	211,676	-0,189451	22,730000	57,685000
2,223045	-136,410814	211,776	-0,189362	22,730000	57,685000
2,222083	-136,634098	211,876	-0,189451	22,730000	57,685000
2,221035	-136,534724	211,977	-0,189411	22,730000	57,685000
2,220084	-136,443938	212,077	-0,189375	22,730000	57,685000
2,219057	-136,102878	212,177	-0,189239	22,730000	57,685000
2,218065	-135,745868	212,277	-0,189097	22,730000	57,685000
2,217047	-135,686980	212,377	-0,189074	22,730000	57,685000
2,216035	-135,479644	212,478	-0,188991	22,730000	57,685000
2,215071	-135,737280	212,578	-0,189094	22,730000	57,685000
2,214070	-135,388858	212,678	-0,188955	22,730000	57,685000
2,213050	-135,197472	212,778	-0,188879	22,730000	57,685000
2,212059	-135,237957	212,878	-0,188895	22,730000	57,700000
2,211083	-135,013446	212,978	-0,188806	22,730000	57,700000
2,210021	-135,188884	213,078	-0,188875	22,730000	57,700000
2,209079	-135,122635	213,179	-0,188849	22,730000	57,700000
2,208053	-135,072334	213,279	-0,188829	22,730000	57,700000
2,207064	-135,171708	213,379	-0,188869	22,730000	57,700000
2,206069	-135,096871	213,479	-0,188839	22,730000	57,700000
2,205046	-134,948424	213,579	-0,188780	22,730000	57,700000
2,203985	-135,388858	213,680	-0,188955	22,730000	57,700000
2,203017	-134,631900	213,782	-0,188654	22,730000	57,700000
2,202075	-135,347146	213,883	-0,188938	22,730000	57,700000
2,201098	-134,748449	213,983	-0,188700	22,730000	57,700000
2,200036	-134,623312	214,083	-0,188650	22,730000	57,700000
2,199061	-134,797523	214,183	-0,188720	22,730000	57,700000
2,198076	-135,363095	214,283	-0,188945	22,730000	57,700000
2,197093	-135,188884	214,383	-0,188875	22,730000	57,700000
2,196112	-135,246545	214,483	-0,188898	22,730000	57,700000
2,195040	-135,263721	214,583	-0,188905	22,730000	57,700000
2,194053	-135,462469	214,683	-0,188984	22,730000	57,700000
2,193040	-135,778993	214,783	-0,189110	22,730000	57,700000
2,192053	-135,986328	214,884	-0,189193	22,730000	57,685000
2,191030	-135,753229	214,984	-0,189100	22,730000	57,685000
2,190129	-135,970379	215,084	-0,189187	22,730000	57,685000
2,189043	-136,003504	215,184	-0,189200	22,730000	57,685000
2,188039	-136,219427	215,284	-0,189286	22,730000	57,685000
2,187038	-136,418175	215,385	-0,189365	22,730000	57,685000
2,186030	-136,269728	215,486	-0,189306	22,730000	57,685000
2,185027	-136,459887	215,587	-0,189381	22,730000	57,685000
2,184038	-136,668450	215,687	-0,189464	22,730000	57,685000
2,183013	-136,999696	215,787	-0,189596	22,730000	57,685000
2,182045	-137,183721	215,887	-0,189669	22,730000	57,685000
2,181089	-137,299044	215,987	-0,189715	22,730000	57,685000
2,180081	-137,283095	216,087	-0,189709	22,730000	57,685000
2,179046	-137,499019	216,188	-0,189795	22,730000	57,685000
2,178055	-137,624156	216,289	-0,189845	22,730000	57,685000
2,177015	-137,681817	216,389	-0,189868	22,730000	57,685000
2,176021	-137,806955	216,489	-0,189917	22,730000	57,685000
2,175013	-138,338175	216,589	-0,190129	22,730000	57,685000
2,174066	-138,662060	216,689	-0,190258	22,730000	57,685000
2,173067	-137,955402	216,790	-0,189977	22,730000	57,685000
2,172065	-138,720948	216,891	-0,190281	22,730000	57,685000
2,171041	-139,019070	216,992	-0,190400	22,730000	57,685000
2,170081	-138,562686	217,092	-0,190218	22,730000	57,685000
2,169083	-138,463313	217,192	-0,190179	22,730000	57,685000
2,168066	-138,762661	217,292	-0,190298	22,730000	57,685000
2,167088	-139,318418	217,392	-0,190519	22,730000	57,685000
2,166068	-139,419019	217,492	-0,190559	22,730000	57,685000
2,165048	-139,302469	217,592	-0,190513	22,730000	57,685000
2,164074	-139,419019	217,692	-0,190559	22,730000	57,685000
2,163035	-139,584642	217,792	-0,190625	22,730000	57,685000
2,162029	-139,542929	217,892	-0,190608	22,730000	57,685000
2,161087	-140,025077	217,992	-0,190800	22,730000	57,685000
2,160080	-140,017716	218,092	-0,190797	22,730000	57,685000
2,159075	-140,299888	218,192	-0,190910	22,730000	57,685000
2,158014	-140,374725	218,292	-0,190939	22,730000	57,685000
2,157014	-140,199287	218,392	-0,190870	22,730000	57,685000
2,156036	-140,599236	218,492	-0,191029	22,730000	57,685000
2,155015	-140,947658	218,592	-0,191167	22,730000	57,685000
2,154013	-141,480106	218,692	-0,191379	22,730000	57,685000
2,153058	-141,031083	218,792	-0,191201	22,730000	57,685000
2,152053	-141,271543	218,892	-0,191296	22,730000	57,730000
2,151064	-141,729154	218,992	-0,191479	22,730000	57,730000
2,150054	-141,238419	219,092	-0,191283	22,730000	57,730000
2,149077	-141,737741	219,192	-0,191482	22,730000	57,730000
2,148070	-141,953665	219,292	-0,191568	22,730000	57,730000
2,147069	-141,696029	219,392	-0,191465	22,730000	57,730000
2,146027	-141,729154	219,492	-0,191479	22,730000	57,730000
2,145087	-142,153639	219,592	-0,191647	22,730000	57,730000
2,144039	-141,986789	219,693	-0,191581	22,730000	57,730000
2,143078	-142,178176	219,793	-0,191657	22,730000	57,730000
2,142015	-142,402687	219,893	-0,191747	22,730000	57,730000
2,141049	-142,427224	219,993	-0,191756	22,730000	57,730000
2,140015	-142,460349	220,093	-0,191770	22,730000	57,730000
2,139074	-142,735160	220,194	-0,191879	22,730000	57,730000
2,138008	-143,506841	220,295	-0,192186	22,730000	57,730000
2,137091	-143,324042	220,396	-0,192113	22,730000	57,730000
2,136109	-143,457767	220,496	-0,192167	22,730000	57,730000
2,135086	-143,457767	220,596	-0,192167	22,730000	57,730000
2,134074	-143,997576	220,696	-0,192381	22,730000	57,730000
2,133051	-144,006164	220,796	-0,192385	22,730000	57,730000
2,132044	-144,063825	220,897	-0,192408	22,730000	57,730000
2,131097	-144,180375	220,998	-0,192454	22,730000	57,730000
2,130046	-143,882253	221,098	-0,192335	22,730000	57,730000
2,129069	-143,988988	221,198	-0,192378	22,730000	57,730000
2,128010	-144,072413	221,298	-0,192411	22,730000	57,730000
2,127029	-144,072413	221,398	-0,192411	22,730000	57,730000
2,126029	-144,538611	221,499	-0,192597	22,730000	57,730000
2,125056	-144,246624	221,599	-0,192480	22,730000	57,730000
2,124055	-144,812196	221,699	-0,192706	22,730000	57,730000
2,123031	-144,770483	221,799	-0,192689	22,730000	57,730000
2,122014	-145,120132	221,899	-0,192828	22,730000	57,730000
2,121071	-145,410892	221,999	-0,192944	22,730000	57,730000
2,120071	-145,111544	222,099	-0,192825	22,730000	57,730000
2,119036	-145,169205	222,200	-0,192848	22,730000	57,730000
2,118057	-145,410892	222,300	-0,192944	22,730000	57,730000
2,117058	-144,737359	222,400	-0,192676	22,730000	57,730000
2,116077	-144,895621	222,500	-0,192739	22,730000	57,730000
2,115065	-145,036707	222,600	-0,192795	22,730000	57,730000
2,114040	-145,078419	222,700	-0,192812	22,730000	57,730000
2,113046	-145,169205	222,800	-0,192848	22,730000	57,730000
2,112053	-145,278394	222,900	-0,192891	22,740000	57,685000
2,111037	-145,028119	223,000	-0,192792	22,740000	57,685000
2,110053	-145,053883	223,100	-0,192802	22,740000	57,685000
2,109076	-145,087007	223,200	-0,192815	22,740000	57,685000
2,108036	-145,726190	223,300	-0,193069	22,740000	57,685000
2,107065	-145,127493	223,400	-0,192831	22,740000	57,685000
2,106075	-145,344643	223,500	-0,192917	22,740000	57,685000
2,105017	-145,410892	223,600	-0,192944	22,740000	57,685000
2,104095	-145,318880	223,700	-0,192907	22,740000	57,685000
2,102996	-145,567928	223,801	-0,193006	22,740000	57,685000
2,102034	-145,244042	223,901	-0,192877	22,740000	57,685000
2,101012	-145,643991	224,001	-0,193037	22,740000	57,685000
2,100021	-145,236681	224,102	-0,192875	22,740000	57,685000
2,099025	-145,285755	224,202	-0,192894	22,740000	57,685000
2,098039	-144,961870	224,302	-0,192765	22,740000	57,685000
2,097014	-144,961870	224,402	-0,192765	22,740000	57,685000
2,096073	-144,463774	224,503	-0,192567	22,740000	57,685000
2,095016	-144,180375	224,603	-0,192454	22,740000	57,685000
2,094021	-143,649154	224,703	-0,192243	22,740000	57,685000
2,093049	-143,349806	224,803	-0,192124	22,740000	57,685000
2,092039	-142,402687	224,904	-0,191747	22,730000	57,685000
2,091063	-142,709397	225,004	-0,191869	22,730000	57,685000
2,090011	-142,211301	225,105	-0,191670	22,730000	57,685000
2,089110	-141,638368	225,206	-0,191442	22,730000	57,685000
2,088017	-140,773447	225,306	-0,191098	22,730000	57,685000
2,087070	-139,917115	225,407	-0,190757	22,730000	57,685000
2,086053	-138,828910	225,507	-0,190324	22,730000	57,685000
2,085030	-137,773830	225,607	-0,189904	22,730000	57,685000
2,084028	-136,675811	225,707	-0,189467	22,730000	57,685000
2,083010	-134,847823	225,807	-0,188740	22,730000	57,685000
2,082013	-131,997880	225,907	-0,187605	22,730000	57,685000
2,081086	-128,465815	226,007	-0,186200	22,730000	57,685000
2,080052	-125,174211	226,107	-0,184890	22,730000	57,685000
2,079024	-121,443399	226,207	-0,183405	22,730000	57,685000
2,078040	-118,741903	226,307	-0,182330	22,730000	57,685000
2,077059	-115,566848	226,407	-0,181066	22,730000	57,685000
2,076031	-110,514732	226,507	-0,179055	22,730000	57,685000
2,075094	-104,148673	226,607	-0,176521	22,730000	57,685000
2,074079	-0,739783	226,707	-0,135365	22,730000	57,685000
2,073032	-0,698070	226,807	-0,135348	22,730000	57,685000
2,072099	-0,572933	226,907	-0,135298	22,720000	57,670000
2,071053	-0,722607	227,007	-0,135358	22,720000	57,670000
2,070043	-0,614645	227,107	-0,135315	22,720000	57,670000
2,069007	-0,631821	227,207	-0,135322	22,720000	57,670000
2,068057	-0,748371	227,307	-0,135368	22,720000	57,670000
2,067061	-0,647770	227,407	-0,135328	22,720000	57,670000
2,066121	-0,731195	227,507	-0,135361	22,720000	57,670000
2,065021	-0,673534	227,607	-0,135338	22,720000	57,670000
2,064039	-0,647770	227,708	-0,135328	22,720000	57,670000
2,063073	-0,790083	227,809	-0,135385	22,720000	57,670000
2,062088	-0,631821	227,909	-0,135322	22,720000	57,670000
2,061074	-0,498096	228,009	-0,135269	22,720000	57,670000
2,060033	-0,830569	228,109	-0,135401	22,720000	57,670000
2,059033	-0,548396	228,209	-0,135289	22,720000	57,670000
2,058021	-0,548396	228,309	-0,135289	22,720000	57,670000
2,057083	-0,689483	228,409	-0,135345	22,720000	57,670000
2,056047	-0,715246	228,509	-0,135355	22,720000	57,670000
2,055046	-0,673534	228,609	-0,135338	22,720000	57,670000
2,054025	-0,631821	228,709	-0,135322	22,720000	57,670000
2,053043	-0,590109	228,809	-0,135305	22,720000	57,670000
2,052072	-0,423259	228,909	-0,135239	22,730000	57,700000
2,051037	-0,523860	229,009	-0,135279	22,730000	57,700000
2,050098	-0,572933	229,110	-0,135298	22,730000	57,700000
2,049103	-0,490735	229,211	-0,135266	22,730000	57,700000
2,048023	-0,772908	229,311	-0,135378	22,730000	57,700000
2,047052	-0,689483	229,411	-0,135345	22,730000	57,700000
2,046018	-0,581521	229,512	-0,135302	22,730000	57,700000
2,045010	-0,647770	229,612	-0,135328	22,730000	57,700000
2,044060	-0,423259	229,712	-0,135239	22,730000	57,700000
2,043059	-0,856332	229,813	-0,135411	22,730000	57,700000
2,042075	-0,515272	229,913	-0,135275	22,730000	57,700000
2,041012	-0,806032	230,013	-0,135391	22,730000	57,700000
2,040068	-0,731195	230,113	-0,135361	22,730000	57,700000
2,039039	-0,748371	230,214	-0,135368	22,730000	57,700000
2,038079	-0,772908	230,314	-0,135378	22,730000	57,700000
2,037064	-0,656358	230,414	-0,135332	22,730000	57,700000
2,036074	-0,515272	230,515	-0,135275	22,730000	57,700000
2,035036	-0,597470	230,615	-0,135308	22,730000	57,700000
2,034083	-0,523860	230,716	-0,135279	22,730000	57,700000
2,033041	-0,506684	230,816	-0,135272	22,730000	57,700000
2,032059	-0,565572	230,916	-0,135295	22,720000	57,735000
2,031082	-0,590109	231,016	-0,135305	22,720000	57,735000
2,030019	-0,731195	231,116	-0,135361	22,720000	57,735000
2,029087	-0,722607	231,216	-0,135358	22,720000	57,735000
2,028115	-0,556984	231,316	-0,135292	22,720000	57,735000
2,027063	-0,332473	231,417	-0,135203	22,720000	57,735000
2,026019	-0,572933	231,517	-0,135298	22,720000	57,735000
2,025078	-0,515272	231,618	-0,135275	22,720000	57,735000
2,024045	-0,947118	231,718	-0,135447	22,720000	57,735000
2,023088	-0,689483	231,818	-0,135345	22,720000	57,735000
2,022085	-0,680895	231,919	-0,135341	22,720000	57,735000
2,021113	-0,357010	232,020	-0,135212	22,720000	57,735000
2,020035	-0,423259	232,121	-0,135239	22,720000	57,735000
2,019070	-0,647770	232,221	-0,135328	22,720000	57,735000
2,018033	-0,606058	232,322	-0,135312	22,720000	57,735000
2,017050	-0,556984	232,422	-0,135292	22,720000	57,735000
2,016101	-0,623233	232,522	-0,135318	22,720000	57,735000
2,015028	-0,590109	232,622	-0,135305	22,720000	57,735000
2,014094	-0,673534	232,722	-0,135338	22,720000	57,735000
2,013042	-0,856332	232,822	-0,135411	22,720000	57,735000
2,012053	-0,731195	232,922	-0,135361	22,720000	57,640000
2,011058	-0,715246	233,022	-0,135355	22,720000	57,640000
2,010100	-0,689483	233,122	-0,135345	22,720000	57,640000
2,009058	-0,731195	233,222	-0,135361	22,720000	57,640000
2,008083	-0,548396	233,322	-0,135289	22,720000	57,640000
2,007088	-0,456383	233,422	-0,135252	22,720000	57,640000
2,006052	-0,931170	233,522	-0,135441	22,720000	57,640000
2,005062	-0,565572	233,622	-0,135295	22,720000	57,640000
2,004022	-0,664946	233,722	-0,135335	22,720000	57,640000
2,003058	-0,880869	233,823	-0,135421	22,720000	57,640000
2,002033	-0,755732	233,924	-0,135371	22,720000	57,640000
2,001043	-0,572933	234,024	-0,135298	22,720000	57,640000
2,000050	-0,731195	234,124	-0,135361	22,720000	57,640000
1,999080	-0,614645	234,225	-0,135315	22,720000	57,640000
1,998034	-0,482147	234,326	-0,135262	22,720000	57,640000
1,997079	-0,673534	234,427	-0,135338	22,720000	57,640000
1,996059	-0,539808	234,528	-0,135285	22,720000	57,640000
1,995078	-0,781495	234,628	-0,135381	22,720000	57,640000
1,994052	-0,365598	234,728	-0,135216	22,720000	57,640000
1,993019	-0,656358	234,828	-0,135332	22,720000	57,640000
1,992047	-0,698070	234,929	-0,135348	22,730000	57,660000
1,991052	-0,581521	235,030	-0,135302	22,730000	57,660000
1,990045	-0,872281	235,131	-0,135417	22,730000	57,660000
1,989018	-0,722607	235,232	-0,135358	22,730000	57,660000
1,988080	-0,565572	235,333	-0,135295	22,730000	57,660000
1,987054	-0,515272	235,433	-0,135275	22,730000	57,660000
1,986057	-0,623233	235,534	-0,135318	22,730000	57,660000
1,985047	-0,423259	235,634	-0,135239	22,730000	57,660000
1,984042	-0,606058	235,735	-0,135312	22,730000	57,660000
1,983089	-0,922582	235,835	-0,135438	22,730000	57,660000
1,982037	-0,572933	235,935	-0,135298	22,730000	57,660000
1,981074	-0,830569	236,035	-0,135401	22,730000	57,660000
1,980051	-0,482147	236,135	-0,135262	22,730000	57,660000
1,979018	-0,565572	236,235	-0,135295	22,730000	57,660000
1,978039	-0,664946	236,335	-0,135335	22,730000	57,660000
1,977037	-0,440435	236,436	-0,135246	22,730000	57,660000
1,976082	-0,597470	236,536	-0,135308	22,730000	57,660000
1,975053	-0,357010	236,636	-0,135212	22,730000	57,660000
1,974096	-0,664946	236,736	-0,135335	22,730000	57,660000
1,973118	-0,390134	236,836	-0,135226	22,730000	57,660000
1,972030	-0,431847	236,936	-0,135242	22,730000	57,660000
1,971105	-0,532447	237,036	-0,135282	22,730000	57,660000
1,970023	-0,664946	237,136	-0,135335	22,730000	57,660000
1,969020	-0,482147	237,236	-0,135262	22,730000	57,660000
1,968025	-0,464971	237,337	-0,135255	22,730000	57,660000
1,967044	-0,532447	237,438	-0,135282	22,730000	57,660000
1,966080	-0,357010	237,538	-0,135212	22,730000	57,660000
1,965057	-0,606058	237,638	-0,135312	22,730000	57,660000
1,964061	-0,282173	237,738	-0,135183	22,730000	57,660000
1,963013	-0,473559	237,839	-0,135259	22,730000	57,660000
1,962062	-0,797444	237,939	-0,135388	22,730000	57,660000
1,961079	-0,689483	238,039	-0,135345	22,730000	57,660000
1,960039	-0,597470	238,139	-0,135308	22,730000	57,660000
1,959006	-0,532447	238,239	-0,135282	22,730000	57,660000
1,958066	-0,440435	238,339	-0,135246	22,730000	57,660000
1,957032	-0,539808	238,439	-0,135285	22,730000	57,660000
1,956068	-0,606058	238,539	-0,135312	22,730000	57,660000
1,955048	-0,398722	238,639	-0,135229	22,730000	57,660000
1,954016	-0,614645	238,740	-0,135315	22,730000	57,660000
1,953053	-0,123911	238,841	-0,135120	22,710000	57,710000
1,952071	-0,631821	238,942	-0,135322	22,710000	57,710000
1,951084	-0,748371	239,042	-0,135368	22,710000	57,710000
1,950043	-0,415898	239,143	-0,135236	22,710000	57,710000
1,949046	-0,440435	239,243	-0,135246	22,710000	57,710000
1,948112	-0,290760	239,343	-0,135186	22,710000	57,710000
1,947090	-0,839157	239,443	-0,135404	22,710000	57,710000
1,946098	-0,722607	239,543	-0,135358	22,710000	57,710000
1,945001	-0,590109	239,643	-0,135305	22,710000	57,710000
1,944016	-0,539808	239,743	-0,135285	22,710000	57,710000
1,942996	-0,647770	239,843	-0,135328	22,710000	57,710000
1,942068	-0,556984	239,944	-0,135292	22,710000	57,710000
1,941035	-0,523860	240,045	-0,135279	22,710000	57,710000
1,940004	-0,572933	240,145	-0,135298	22,710000	57,710000
1,939097	-0,398722	240,246	-0,135229	22,710000	57,710000
1,938031	-0,440435	240,346	-0,135246	22,710000	57,710000
1,937084	-0,390134	240,447	-0,135226	22,710000	57,710000
1,935959	-0,614645	240,547	-0,135315	22,710000	57,710000
1,935049	-0,515272	240,647	-0,135275	22,710000	57,710000
1,934045	-0,473559	240,747	-0,135259	22,710000	57,710000
1,933050	-0,606058	240,847	-0,135312	22,710000	57,710000
1,932027	-0,781495	240,948	-0,135381	22,710000	57,710000
1,931023	-0,715246	241,048	-0,135355	22,710000	57,710000
1,930078	-0,473559	241,148	-0,135259	22,710000	57,710000
1,929116	-0,722607	241,248	-0,135358	22,710000	57,710000
1,928015	-0,506684	241,349	-0,135272	22,710000	57,710000
1,927079	-0,456383	241,449	-0,135252	22,710000	57,710000
1,926095	-0,755732	241,549	-0,135371	22,710000	57,710000
1,925111	-0,423259	241,650	-0,135239	22,710000	57,710000
1,924042	-0,431847	241,750	-0,135242	22,710000	57,710000
1,923029	-0,482147	241,850	-0,135262	22,710000	57,710000
1,922051	-0,464971	241,951	-0,135255	22,710000	57,710000
1,921046	-0,614645	242,052	-0,135315	22,710000	57,710000
1,920064	-0,233099	242,152	-0,135163	22,710000	57,710000
1,919033	-0,539808	242,252	-0,135285	22,710000	57,710000
1,918095	-0,689483	242,352	-0,135345	22,710000	57,710000
1,917033	-0,539808	242,452	-0,135285	22,710000	57,710000
1,916055	-0,623233	242,552	-0,135318	22,710000	57,710000
1,915058	-0,407310	242,652	-0,135232	22,710000	57,710000
1,914052	-0,407310	242,752	-0,135232	22,710000	57,710000
1,913055	-0,565572	242,852	-0,135295	22,730000	57,675000
1,912095	-0,423259	242,953	-0,135239	22,730000	57,675000
1,911039	-0,415898	243,053	-0,135236	22,730000	57,675000
1,910061	-0,490735	243,153	-0,135266	22,730000	57,675000
1,909103	-0,398722	243,254	-0,135229	22,730000	57,675000
1,908085	-0,348422	243,354	-0,135209	22,730000	57,675000
1,907089	-0,623233	243,454	-0,135318	22,730000	57,675000
1,906034	-0,532447	243,555	-0,135282	22,730000	57,675000
1,905091	-0,365598	243,655	-0,135216	22,730000	57,675000
1,904068	-0,215923	243,755	-0,135156	22,730000	57,675000
1,903056	-0,266224	243,855	-0,135176	22,730000	57,675000
1,902012	-0,565572	243,955	-0,135295	22,730000	57,675000
1,901070	-0,282173	244,055	-0,135183	22,730000	57,675000
1,900076	-0,274812	244,155	-0,135180	22,730000	57,675000
1,899113	-0,647770	244,256	-0,135328	22,730000	57,675000
1,898059	-0,548396	244,356	-0,135289	22,730000	57,675000
1,897060	-0,150901	244,457	-0,135130	22,730000	57,675000
1,896040	-0,431847	244,558	-0,135242	22,730000	57,675000
1,895041	-0,606058	244,658	-0,135312	22,730000	57,675000
1,894073	-0,407310	244,758	-0,135232	22,730000	57,675000
1,893074	-0,365598	244,858	-0,135216	22,730000	57,675000
1,892111	-0,323885	244,959	-0,135199	22,730000	57,675000
1,891047	-0,523860	245,059	-0,135279	22,730000	57,675000
1,890119	-0,407310	245,159	-0,135232	22,730000	57,675000
1,889042	-0,764320	245,259	-0,135375	22,730000	57,675000
1,888065	-0,431847	245,359	-0,135242	22,730000	57,675000
1,887015	-0,456383	245,459	-0,135252	22,730000	57,675000
1,886071	-0,290760	245,559	-0,135186	22,730000	57,675000
1,885105	-0,266224	245,659	-0,135176	22,730000	57,675000
1,884086	-0,299348	245,760	-0,135189	22,730000	57,675000
1,883083	-0,341061	245,860	-0,135206	22,730000	57,675000
1,882066	-0,440435	245,960	-0,135246	22,730000	57,675000
1,881085	-0,498096	246,060	-0,135269	22,730000	57,675000
1,880068	-0,033125	246,160	-0,135083	22,730000	57,675000
1,879049	-0,614645	246,260	-0,135315	22,730000	57,675000
1,878107	-0,365598	246,360	-0,135216	22,730000	57,675000
1,877066	-0,423259	246,460	-0,135239	22,730000	57,675000
1,876092	-0,274812	246,560	-0,135180	22,730000	57,675000
1,875082	-0,498096	246,660	-0,135269	22,730000	57,675000
1,874056	-0,415898	246,760	-0,135236	22,730000	57,675000
1,873086	-0,539808	246,861	-0,135285	22,730000	57,685000
1,872028	-0,449022	246,961	-0,135249	22,730000	57,685000
1,871064	-0,398722	247,061	-0,135229	22,730000	57,685000
1,870079	-0,565572	247,161	-0,135295	22,730000	57,685000
1,869075	-0,407310	247,261	-0,135232	22,730000	57,685000
1,868052	-0,266224	247,362	-0,135176	22,730000	57,685000
1,867065	-0,374185	247,462	-0,135219	22,730000	57,685000
1,866090	-0,490735	247,563	-0,135266	22,730000	57,685000
1,865095	-0,365598	247,663	-0,135216	22,730000	57,685000
1,864060	-0,482147	247,763	-0,135262	22,730000	57,685000
1,863065	-0,440435	247,863	-0,135246	22,730000	57,685000
1,862054	-0,191387	247,963	-0,135146	22,730000	57,685000
1,861048	-0,282173	248,063	-0,135183	22,730000	57,685000
1,860120	-0,664946	248,163	-0,135335	22,730000	57,685000
1,859080	-0,240460	248,263	-0,135166	22,730000	57,685000
1,858119	-0,532447	248,363	-0,135282	22,730000	57,685000
1,857052	-0,390134	248,463	-0,135226	22,730000	57,685000
1,856073	-0,165623	248,564	-0,135136	22,730000	57,685000
1,855023	-0,639182	248,664	-0,135325	22,730000	57,685000
1,854116	-0,456383	248,764	-0,135252	22,730000	57,685000
1,853017	-0,374185	248,864	-0,135219	22,730000	57,685000
1,852060	-0,332473	248,964	-0,135203	22,730000	57,685000
1,851070	-0,407310	249,064	-0,135232	22,730000	57,685000
1,850054	-0,449022	249,164	-0,135249	22,730000	57,685000
1,849046	-0,074837	249,265	-0,135100	22,730000	57,685000
1,848038	-0,473559	249,366	-0,135259	22,730000	57,685000
1,847045	-0,174211	249,466	-0,135140	22,730000	57,685000
1,846083	-0,323885	249,566	-0,135199	22,730000	57,685000
1,845029	-0,449022	249,666	-0,135249	22,730000	57,685000
1,844048	-0,191387	249,766	-0,135146	22,730000	57,685000
1,843057	-0,490735	249,866	-0,135266	22,730000	57,685000
1,842021	-0,415898	249,967	-0,135236	22,730000	57,685000
1,841046	-0,498096	250,067	-0,135269	22,730000	57,685000
1,840104	-0,374185	250,167	-0,135219	22,730000	57,685000
1,838999	-0,157035	250,267	-0,135133	22,730000	57,685000
1,838076	-0,149674	250,367	-0,135130	22,730000	57,685000
1,837068	-0,456383	250,468	-0,135252	22,730000	57,685000
1,836060	-0,398722	250,569	-0,135229	22,730000	57,685000
1,835034	-0,149674	250,669	-0,135130	22,730000	57,685000
1,834073	-0,374185	250,769	-0,135219	22,730000	57,685000
