Quasi static measurement routine
Tip parameters (shape,radius, material...) 
17.08.2022

Piezo position[nm]	MEMS displ.[nm]	Time[ms]	Cap [pf]	Temp [°C]	Rh [%]
eoh
2,851931	0,363291	0,207	-0,057880	22,450000	56,240000
2,852436	0,474264	0,258	-0,057834	22,450000	56,240000
2,852443	0,411184	0,308	-0,057860	22,450000	56,240000
2,852471	0,585237	0,358	-0,057788	22,450000	56,240000
2,852387	0,616776	0,408	-0,057774	22,450000	56,240000
2,852398	0,459078	0,458	-0,057840	22,450000	56,240000
2,852400	0,782652	0,508	-0,057705	22,450000	56,265000
2,852455	0,782652	0,558	-0,057705	22,450000	56,265000
2,852394	0,751112	0,608	-0,057718	22,450000	56,265000
2,852385	0,339928	0,658	-0,057890	22,450000	56,265000
2,852400	0,522157	0,708	-0,057814	22,450000	56,265000
2,852449	0,696210	0,758	-0,057741	22,450000	56,265000
2,852386	0,530334	0,808	-0,057811	22,450000	56,265000
2,852385	0,807183	0,858	-0,057695	22,450000	56,265000
2,852410	0,545520	0,908	-0,057804	22,450000	56,265000
2,852421	0,782652	0,961	-0,057705	22,450000	56,265000
2,852470	0,324742	1,012	-0,057896	22,450000	56,265000
2,852425	0,616776	1,062	-0,057774	22,450000	56,265000
2,852448	0,744103	1,112	-0,057721	22,450000	56,265000
2,852384	0,782652	1,162	-0,057705	22,450000	56,265000
2,852401	0,570051	1,212	-0,057794	22,450000	56,265000
2,852386	0,537343	1,263	-0,057808	22,450000	56,265000
2,852453	0,744103	1,313	-0,057721	22,450000	56,265000
2,852448	0,696210	1,364	-0,057741	22,450000	56,265000
2,852397	0,561874	1,414	-0,057797	22,450000	56,265000
2,852392	0,704387	1,464	-0,057738	22,450000	56,265000
2,852443	0,719572	1,515	-0,057731	22,450000	56,265000
2,852396	0,537343	1,566	-0,057808	22,450000	56,265000
2,852439	0,671679	1,617	-0,057751	22,450000	56,265000
2,852439	0,522157	1,667	-0,057814	22,450000	56,265000
2,852403	0,719572	1,717	-0,057731	22,450000	56,265000
2,852389	0,577060	1,768	-0,057791	22,450000	56,265000
2,852397	0,633130	1,818	-0,057768	22,450000	56,265000
2,852456	0,545520	1,868	-0,057804	22,450000	56,265000
2,852409	0,751112	1,918	-0,057718	22,450000	56,265000
2,852428	0,403007	1,969	-0,057864	22,450000	56,265000
2,852423	0,601591	2,019	-0,057781	22,450000	56,265000
2,852382	0,759289	2,069	-0,057715	22,450000	56,265000
2,852388	0,403007	2,119	-0,057864	22,450000	56,265000
2,852432	1,012775	2,169	-0,057609	22,450000	56,265000
2,852420	0,782652	2,220	-0,057705	22,450000	56,265000
2,852413	0,426370	2,270	-0,057854	22,450000	56,265000
2,852421	0,807183	2,320	-0,057695	22,450000	56,265000
2,852451	0,426370	2,371	-0,057854	22,450000	56,265000
2,852392	0,260495	2,421	-0,057923	22,450000	56,265000
2,852387	0,220778	2,472	-0,057940	22,450000	56,265000
2,852459	0,624953	2,522	-0,057771	22,450000	56,255000
2,852384	0,901802	2,572	-0,057655	22,450000	56,255000
2,852388	0,679856	2,623	-0,057748	22,450000	56,255000
2,852405	0,220778	2,673	-0,057940	22,450000	56,255000
2,852431	1,059500	2,724	-0,057589	22,450000	56,255000
2,852414	0,727749	2,774	-0,057728	22,450000	56,255000
2,852414	0,593414	2,825	-0,057784	22,450000	56,255000
2,852448	0,973058	2,875	-0,057625	22,450000	56,255000
2,852470	0,624953	2,925	-0,057771	22,450000	56,255000
2,852384	0,878439	2,975	-0,057665	22,450000	56,255000
2,852382	0,482441	3,025	-0,057831	22,450000	56,255000
2,852417	0,838722	3,075	-0,057682	22,450000	56,255000
2,852407	0,356282	3,125	-0,057883	22,450000	56,255000
2,852413	-0,167044	3,175	-0,058102	22,450000	56,255000
2,852385	0,482441	3,225	-0,057831	22,450000	56,255000
2,852353	0,799006	3,275	-0,057698	22,450000	56,255000
2,852481	0,387821	3,325	-0,057870	22,450000	56,255000
2,852373	0,505803	3,375	-0,057821	22,450000	56,255000
2,852405	0,727749	3,425	-0,057728	22,450000	56,255000
2,852418	0,616776	3,475	-0,057774	22,450000	56,255000
2,852411	0,585237	3,525	-0,057788	22,450000	56,255000
2,852430	0,616776	3,576	-0,057774	22,450000	56,255000
2,852378	0,553697	3,626	-0,057801	22,450000	56,255000
2,852389	0,577060	3,676	-0,057791	22,450000	56,255000
2,852444	0,981235	3,726	-0,057622	22,450000	56,255000
2,852406	0,545520	3,777	-0,057804	22,450000	56,255000
2,852459	0,845731	3,827	-0,057679	22,450000	56,255000
2,852405	0,648316	3,878	-0,057761	22,450000	56,255000
2,852429	0,608599	3,929	-0,057778	22,450000	56,255000
2,852426	0,664670	3,980	-0,057754	22,450000	56,255000
2,852460	0,782652	4,031	-0,057705	22,450000	56,255000
2,852395	0,530334	4,081	-0,057811	22,450000	56,255000
2,852436	0,751112	4,131	-0,057718	22,450000	56,255000
2,852450	0,845731	4,181	-0,057679	22,450000	56,255000
2,852397	0,490618	4,231	-0,057827	22,450000	56,255000
2,852395	0,434547	4,281	-0,057851	22,450000	56,255000
2,852414	0,411184	4,331	-0,057860	22,450000	56,255000
2,852417	0,593414	4,381	-0,057784	22,450000	56,255000
2,852439	0,426370	4,431	-0,057854	22,450000	56,255000
2,852461	0,474264	4,481	-0,057834	22,450000	56,255000
2,852376	0,403007	4,531	-0,057864	22,460000	56,255000
2,852428	0,379645	4,581	-0,057874	22,460000	56,255000
2,852444	0,671679	4,632	-0,057751	22,460000	56,255000
2,852408	0,522157	4,682	-0,057814	22,460000	56,255000
2,852449	0,838722	4,733	-0,057682	22,460000	56,255000
2,852405	0,711395	4,784	-0,057735	22,460000	56,255000
2,852445	0,815360	4,834	-0,057691	22,460000	56,255000
2,852407	0,624953	4,884	-0,057771	22,460000	56,255000
2,852448	0,522157	4,936	-0,057814	22,460000	56,255000
2,852404	0,696210	4,986	-0,057741	22,460000	56,255000
2,852365	0,601591	5,036	-0,057781	22,460000	56,255000
2,852400	0,490618	5,086	-0,057827	22,460000	56,255000
2,852432	0,790829	5,136	-0,057702	22,460000	56,255000
2,852403	0,292034	5,186	-0,057910	22,460000	56,255000
2,852416	0,339928	5,236	-0,057890	22,460000	56,255000
2,852417	0,363291	5,286	-0,057880	22,460000	56,255000
2,852418	0,348105	5,336	-0,057887	22,460000	56,255000
2,852457	0,482441	5,386	-0,057831	22,460000	56,255000
2,852424	0,482441	5,436	-0,057831	22,460000	56,255000
2,852407	0,474264	5,486	-0,057834	22,460000	56,255000
2,852391	0,442724	5,536	-0,057847	22,460000	56,255000
2,852423	0,245309	5,586	-0,057930	22,460000	56,255000
2,852410	0,593414	5,636	-0,057784	22,460000	56,255000
2,852369	0,838722	5,686	-0,057682	22,460000	56,255000
2,852420	0,071256	5,736	-0,058002	22,460000	56,255000
2,852476	0,671679	5,786	-0,057751	22,460000	56,255000
2,852446	0,601591	5,837	-0,057781	22,460000	56,255000
2,852385	0,292034	5,887	-0,057910	22,460000	56,255000
2,852413	0,751112	5,937	-0,057718	22,460000	56,255000
2,852408	0,616776	5,987	-0,057774	22,460000	56,255000
2,852426	0,411184	6,037	-0,057860	22,460000	56,255000
2,852335	0,624953	6,088	-0,057771	22,460000	56,255000
2,852452	0,656493	6,138	-0,057758	22,460000	56,255000
2,852393	0,300211	6,188	-0,057907	22,460000	56,255000
2,852362	0,537343	6,239	-0,057808	22,460000	56,255000
2,852447	0,640139	6,289	-0,057765	22,460000	56,255000
2,852446	0,624953	6,339	-0,057771	22,460000	56,255000
2,852447	0,815360	6,390	-0,057691	22,460000	56,255000
2,852433	0,394830	6,440	-0,057867	22,460000	56,255000
2,852456	0,593414	6,490	-0,057784	22,450000	56,265000
2,852382	0,751112	6,540	-0,057718	22,450000	56,265000
2,852411	0,593414	6,591	-0,057784	22,450000	56,265000
2,852426	0,664670	6,641	-0,057754	22,450000	56,265000
2,852464	0,570051	6,691	-0,057794	22,450000	56,265000
2,852431	0,324742	6,741	-0,057896	22,450000	56,265000
2,852411	0,434547	6,791	-0,057851	22,450000	56,265000
2,852458	0,759289	6,841	-0,057715	22,450000	56,265000
2,852429	0,537343	6,891	-0,057808	22,450000	56,265000
2,852455	0,608599	6,941	-0,057778	22,450000	56,265000
2,852384	0,490618	6,991	-0,057827	22,450000	56,265000
2,852485	0,577060	7,041	-0,057791	22,450000	56,265000
2,852413	0,197415	7,092	-0,057950	22,450000	56,265000
2,852474	0,394830	7,142	-0,057867	22,450000	56,265000
2,852425	0,513980	7,192	-0,057817	22,450000	56,265000
2,852436	0,759289	7,242	-0,057715	22,450000	56,265000
2,852460	0,387821	7,293	-0,057870	22,450000	56,265000
2,852412	0,387821	7,343	-0,057870	22,450000	56,265000
2,852483	0,585237	7,393	-0,057788	22,450000	56,265000
2,852426	0,394830	7,443	-0,057867	22,450000	56,265000
2,852386	0,608599	7,494	-0,057778	22,450000	56,265000
2,852440	0,616776	7,544	-0,057774	22,450000	56,265000
2,852385	0,300211	7,594	-0,057907	22,450000	56,265000
2,852405	0,513980	7,644	-0,057817	22,450000	56,265000
2,852417	0,442724	7,695	-0,057847	22,450000	56,265000
2,852426	0,348105	7,745	-0,057887	22,450000	56,265000
2,852462	0,577060	7,795	-0,057791	22,450000	56,265000
2,852480	0,434547	7,845	-0,057851	22,450000	56,265000
2,852454	0,379645	7,895	-0,057874	22,450000	56,265000
2,852414	0,356282	7,945	-0,057883	22,450000	56,265000
2,852460	0,459078	7,996	-0,057840	22,450000	56,265000
2,852427	0,497626	8,047	-0,057824	22,450000	56,265000
2,852451	0,585237	8,097	-0,057788	22,450000	56,265000
2,852443	0,530334	8,147	-0,057811	22,450000	56,265000
2,852439	0,775643	8,197	-0,057708	22,450000	56,265000
2,852441	0,601591	8,247	-0,057781	22,450000	56,265000
2,852417	0,671679	8,297	-0,057751	22,450000	56,265000
2,852416	0,331751	8,347	-0,057894	22,450000	56,265000
2,852419	0,434547	8,397	-0,057851	22,450000	56,265000
2,852379	0,474264	8,447	-0,057834	22,450000	56,265000
2,852418	0,593414	8,497	-0,057784	22,450000	56,265000
2,852350	0,245309	8,547	-0,057930	22,450000	56,265000
2,852438	0,530334	8,598	-0,057811	22,450000	56,265000
2,852389	0,466087	8,648	-0,057837	22,450000	56,265000
2,852412	0,807183	8,698	-0,057695	22,450000	56,265000
2,852411	-0,182229	8,748	-0,058108	22,450000	56,265000
2,852416	0,513980	8,799	-0,057817	22,450000	56,265000
2,852451	0,530334	8,849	-0,057811	22,450000	56,265000
2,852478	0,553697	8,899	-0,057801	22,450000	56,265000
2,852451	0,292034	8,949	-0,057910	22,450000	56,265000
2,852444	0,174052	8,999	-0,057959	22,450000	56,265000
2,852453	0,363291	9,049	-0,057880	22,450000	56,265000
2,852416	0,189238	9,100	-0,057953	22,450000	56,265000
2,852484	0,442724	9,151	-0,057847	22,450000	56,265000
2,852460	0,339928	9,202	-0,057890	22,450000	56,265000
2,852482	0,482441	9,252	-0,057831	22,450000	56,265000
2,852416	0,577060	9,303	-0,057791	22,450000	56,265000
2,852491	0,015186	9,354	-0,058026	22,450000	56,265000
2,852460	0,664670	9,404	-0,057754	22,450000	56,265000
2,852468	0,419361	9,454	-0,057857	22,450000	56,265000
2,852426	0,845731	9,505	-0,057679	22,450000	56,265000
2,852438	0,553697	9,555	-0,057801	22,450000	56,265000
2,852400	0,522157	9,605	-0,057814	22,450000	56,265000
2,852467	0,490618	9,655	-0,057827	22,450000	56,265000
2,852409	0,656493	9,705	-0,057758	22,450000	56,265000
2,852426	1,012775	9,755	-0,057609	22,450000	56,265000
2,852427	0,426370	9,805	-0,057854	22,450000	56,265000
2,852428	0,624953	9,855	-0,057771	22,450000	56,265000
2,852405	0,474264	9,907	-0,057834	22,450000	56,265000
2,852427	0,505803	9,957	-0,057821	22,450000	56,265000
2,852410	0,292034	10,008	-0,057910	22,450000	56,265000
2,852446	0,497626	10,058	-0,057824	22,450000	56,265000
2,852401	0,482441	10,109	-0,057831	22,450000	56,265000
2,852458	0,570051	10,159	-0,057794	22,450000	56,265000
2,852412	0,522157	10,210	-0,057814	22,450000	56,265000
2,852421	0,442724	10,260	-0,057847	22,450000	56,265000
2,852404	0,679856	10,311	-0,057748	22,450000	56,265000
2,852359	0,751112	10,361	-0,057718	22,450000	56,265000
2,851895	0,379645	10,394	-0,057874	22,450000	56,265000
2,851940	0,228955	10,444	-0,057937	22,450000	56,265000
2,851931	0,339928	10,494	-0,057890	22,460000	56,255000
2,851941	0,094619	10,545	-0,057993	22,460000	56,255000
2,851915	0,046725	10,595	-0,058013	22,460000	56,255000
2,851973	-0,134336	10,645	-0,058088	22,460000	56,255000
2,851908	-0,102796	10,695	-0,058075	22,460000	56,255000
2,851882	0,134336	10,745	-0,057976	22,460000	56,255000
2,851979	0,054902	10,796	-0,058009	22,460000	56,255000
2,851918	0,007009	10,847	-0,058029	22,460000	56,255000
2,851900	-0,119150	10,897	-0,058082	22,460000	56,255000
2,851950	-0,268672	10,947	-0,058145	22,460000	56,255000
2,851941	0,356282	10,997	-0,057883	22,460000	56,255000
2,851975	0,086442	11,047	-0,057996	22,460000	56,255000
2,851885	0,371468	11,098	-0,057877	22,460000	56,255000
2,851950	-0,268672	11,148	-0,058145	22,460000	56,255000
2,851956	0,157698	11,199	-0,057966	22,460000	56,255000
2,851975	0,197415	11,249	-0,057950	22,460000	56,255000
2,851926	0,142513	11,299	-0,057973	22,460000	56,255000
2,851913	-0,039717	11,349	-0,058049	22,460000	56,255000
2,851985	0,300211	11,399	-0,057907	22,460000	56,255000
2,851934	0,102796	11,449	-0,057989	22,460000	56,255000
2,851976	0,339928	11,500	-0,057890	22,460000	56,255000
2,851954	0,181061	11,550	-0,057957	22,460000	56,255000
2,851932	0,189238	11,601	-0,057953	22,460000	56,255000
2,851890	-0,016354	11,652	-0,058039	22,460000	56,255000
2,851880	0,228955	11,702	-0,057937	22,460000	56,255000
2,851896	0,419361	11,752	-0,057857	22,460000	56,255000
2,851915	0,110973	11,803	-0,057986	22,460000	56,255000
2,851890	0,007009	11,854	-0,058029	22,460000	56,255000
2,851942	-0,063079	11,904	-0,058059	22,460000	56,255000
2,851981	-0,063079	11,955	-0,058059	22,460000	56,255000
2,851896	-0,016354	12,005	-0,058039	22,460000	56,255000
2,851941	-0,008177	12,055	-0,058036	22,460000	56,255000
2,851865	0,205592	12,105	-0,057946	22,460000	56,255000
2,851950	0,157698	12,155	-0,057966	22,460000	56,255000
2,851873	0,157698	12,205	-0,057966	22,460000	56,255000
2,851944	0,000000	12,256	-0,058032	22,460000	56,255000
2,851894	-0,056071	12,307	-0,058056	22,460000	56,255000
2,851932	0,165875	12,357	-0,057963	22,460000	56,255000
2,851925	0,245309	12,408	-0,057930	22,460000	56,255000
2,851941	-0,293202	12,458	-0,058155	22,460000	56,255000
2,851945	0,094619	12,508	-0,057993	22,450000	56,265000
2,851910	0,094619	12,558	-0,057993	22,450000	56,265000
2,851904	0,000000	12,608	-0,058032	22,450000	56,265000
2,851960	0,165875	12,658	-0,057963	22,450000	56,265000
2,851849	0,046725	12,709	-0,058013	22,450000	56,265000
2,851907	0,031540	12,759	-0,058019	22,450000	56,265000
2,851952	0,174052	12,810	-0,057959	22,450000	56,265000
2,851886	-0,016354	12,861	-0,058039	22,450000	56,265000
2,851932	-0,039717	12,911	-0,058049	22,450000	56,265000
2,851893	0,142513	12,963	-0,057973	22,450000	56,265000
2,851954	0,126159	13,013	-0,057979	22,450000	56,265000
2,851960	0,126159	13,064	-0,057979	22,450000	56,265000
2,851907	0,157698	13,114	-0,057966	22,450000	56,265000
2,851918	-0,008177	13,164	-0,058036	22,450000	56,265000
2,851938	0,181061	13,214	-0,057957	22,450000	56,265000
2,851942	-0,032708	13,265	-0,058046	22,450000	56,265000
2,851972	0,015186	13,315	-0,058026	22,450000	56,265000
2,851939	0,197415	13,365	-0,057950	22,450000	56,265000
2,851950	-0,032708	13,415	-0,058046	22,450000	56,265000
2,851898	-0,182229	13,465	-0,058108	22,450000	56,265000
2,851924	0,411184	13,515	-0,057860	22,450000	56,265000
2,851921	0,031540	13,566	-0,058019	22,450000	56,265000
2,851913	-0,032708	13,616	-0,058046	22,450000	56,265000
2,851931	-0,087610	13,666	-0,058069	22,450000	56,265000
2,851911	0,110973	13,716	-0,057986	22,450000	56,265000
2,851978	-0,063079	13,766	-0,058059	22,450000	56,265000
2,851954	0,545520	13,816	-0,057804	22,450000	56,265000
2,851963	-0,213769	13,866	-0,058122	22,450000	56,265000
2,851920	-0,134336	13,917	-0,058088	22,450000	56,265000
2,851934	-0,102796	13,968	-0,058075	22,450000	56,265000
2,851913	-0,190406	14,018	-0,058112	22,450000	56,265000
2,851946	0,063079	14,068	-0,058006	22,450000	56,265000
2,851951	-0,047894	14,118	-0,058052	22,450000	56,265000
2,851953	-0,039717	14,168	-0,058049	22,450000	56,265000
2,851956	-0,039717	14,218	-0,058049	22,450000	56,265000
2,851929	-0,230123	14,268	-0,058128	22,450000	56,265000
2,851891	0,102796	14,318	-0,057989	22,450000	56,265000
2,851917	-0,158867	14,368	-0,058099	22,450000	56,265000
2,851957	-0,119150	14,418	-0,058082	22,450000	56,265000
2,851969	-0,056071	14,468	-0,058056	22,450000	56,265000
2,851952	0,000000	14,518	-0,058032	22,450000	56,265000
2,851935	-0,087610	14,568	-0,058069	22,450000	56,265000
2,851922	0,046725	14,618	-0,058013	22,450000	56,265000
2,851901	0,268672	14,668	-0,057920	22,450000	56,265000
2,851926	-0,047894	14,719	-0,058052	22,450000	56,265000
2,851929	0,039717	14,769	-0,058016	22,450000	56,265000
2,851875	0,268672	14,819	-0,057920	22,450000	56,265000
2,851896	0,142513	14,869	-0,057973	22,450000	56,265000
2,851901	0,117982	14,919	-0,057983	22,450000	56,265000
2,851947	0,046725	14,969	-0,058013	22,450000	56,265000
2,851881	0,411184	15,019	-0,057860	22,450000	56,265000
2,851880	0,046725	15,070	-0,058013	22,450000	56,265000
2,851968	-0,039717	15,120	-0,058049	22,450000	56,265000
2,851969	0,063079	15,170	-0,058006	22,450000	56,265000
2,851940	-0,039717	15,221	-0,058049	22,450000	56,265000
2,851936	0,054902	15,272	-0,058009	22,450000	56,265000
2,851895	0,292034	15,322	-0,057910	22,450000	56,265000
2,851926	0,054902	15,373	-0,058009	22,450000	56,265000
2,851940	-0,102796	15,423	-0,058075	22,450000	56,265000
2,851892	0,054902	15,473	-0,058009	22,450000	56,265000
2,851937	0,387821	15,523	-0,057870	22,450000	56,265000
2,851967	0,078265	15,573	-0,058000	22,450000	56,265000
2,851893	0,126159	15,623	-0,057979	22,450000	56,265000
2,851903	0,015186	15,673	-0,058026	22,450000	56,265000
2,851886	0,126159	15,723	-0,057979	22,450000	56,265000
2,851920	0,419361	15,774	-0,057857	22,450000	56,265000
2,851995	0,316565	15,824	-0,057900	22,450000	56,265000
2,851873	0,308388	15,874	-0,057903	22,450000	56,265000
2,851924	-0,024531	15,924	-0,058042	22,450000	56,265000
2,851906	-0,063079	15,974	-0,058059	22,450000	56,265000
2,851911	0,228955	16,024	-0,057937	22,450000	56,265000
2,851855	0,197415	16,075	-0,057950	22,450000	56,265000
2,851914	0,285025	16,125	-0,057913	22,450000	56,265000
2,851906	0,189238	16,176	-0,057953	22,450000	56,265000
2,851903	0,000000	16,226	-0,058032	22,450000	56,265000
2,851932	-0,087610	16,276	-0,058069	22,450000	56,265000
2,851920	0,197415	16,326	-0,057950	22,450000	56,265000
2,851952	0,189238	16,377	-0,057953	22,450000	56,265000
2,851957	0,007009	16,428	-0,058029	22,450000	56,265000
2,851954	-0,190406	16,479	-0,058112	22,450000	56,265000
2,851917	0,285025	16,529	-0,057913	22,460000	56,265000
2,851895	-0,206760	16,579	-0,058119	22,460000	56,265000
2,851927	0,102796	16,629	-0,057989	22,460000	56,265000
2,851921	0,063079	16,679	-0,058006	22,460000	56,265000
2,851970	-0,056071	16,729	-0,058056	22,460000	56,265000
2,851935	0,039717	16,780	-0,058016	22,460000	56,265000
2,851903	-0,276848	16,831	-0,058148	22,460000	56,265000
2,851891	0,039717	16,881	-0,058016	22,460000	56,265000
2,851927	0,063079	16,932	-0,058006	22,460000	56,265000
2,851960	-0,094619	16,983	-0,058072	22,460000	56,265000
2,851938	0,102796	17,034	-0,057989	22,460000	56,265000
2,851928	0,220778	17,084	-0,057940	22,460000	56,265000
2,851947	-0,127327	17,134	-0,058085	22,460000	56,265000
2,851895	0,276848	17,184	-0,057917	22,460000	56,265000
2,851887	0,134336	17,235	-0,057976	22,460000	56,265000
2,851956	0,063079	17,285	-0,058006	22,460000	56,265000
2,851873	-0,063079	17,335	-0,058059	22,460000	56,265000
2,851911	0,220778	17,386	-0,057940	22,460000	56,265000
2,851937	0,126159	17,436	-0,057979	22,460000	56,265000
2,851922	-0,087610	17,486	-0,058069	22,460000	56,265000
2,851920	0,110973	17,537	-0,057986	22,460000	56,265000
2,851885	0,117982	17,587	-0,057983	22,460000	56,265000
2,851954	-0,032708	17,637	-0,058046	22,460000	56,265000
2,851876	-0,039717	17,687	-0,058049	22,460000	56,265000
2,851958	-0,024531	17,737	-0,058042	22,460000	56,265000
2,851919	-0,008177	17,787	-0,058036	22,460000	56,265000
2,851943	0,000000	17,837	-0,058032	22,460000	56,265000
2,851936	-0,039717	17,887	-0,058049	22,460000	56,265000
2,851914	-0,230123	17,937	-0,058128	22,460000	56,265000
2,851901	0,189238	17,987	-0,057953	22,460000	56,265000
2,851903	-0,308388	18,037	-0,058161	22,460000	56,265000
2,851938	0,007009	18,087	-0,058029	22,460000	56,265000
2,851898	-0,127327	18,137	-0,058085	22,460000	56,265000
2,851940	0,015186	18,188	-0,058026	22,460000	56,265000
2,851917	-0,047894	18,238	-0,058052	22,460000	56,265000
2,851930	0,054902	18,289	-0,058009	22,460000	56,265000
2,851947	-0,102796	18,339	-0,058075	22,460000	56,265000
2,851926	-0,016354	18,389	-0,058039	22,460000	56,265000
2,851902	0,165875	18,439	-0,057963	22,460000	56,265000
2,851893	0,324742	18,490	-0,057896	22,460000	56,265000
2,851931	0,174052	18,541	-0,057959	22,460000	56,265000
2,851908	-0,094619	18,591	-0,058072	22,460000	56,265000
2,852006	0,094619	18,641	-0,057993	22,460000	56,265000
2,851974	0,046725	18,692	-0,058013	22,460000	56,265000
2,851929	-0,221946	18,743	-0,058125	22,460000	56,265000
2,851901	-0,024531	18,793	-0,058042	22,460000	56,265000
2,851933	0,031540	18,844	-0,058019	22,460000	56,265000
2,851899	0,117982	18,894	-0,057983	22,460000	56,265000
2,851920	0,031540	18,944	-0,058019	22,460000	56,265000
2,851900	-0,056071	18,994	-0,058056	22,460000	56,265000
2,851920	-0,134336	19,044	-0,058088	22,460000	56,265000
2,851938	-0,024531	19,094	-0,058042	22,460000	56,265000
2,851893	-0,032708	19,144	-0,058046	22,460000	56,265000
2,851932	-0,142513	19,194	-0,058092	22,460000	56,265000
2,851928	-0,071256	19,245	-0,058062	22,460000	56,265000
2,851907	-0,230123	19,295	-0,058128	22,460000	56,265000
2,851879	-0,190406	19,346	-0,058112	22,460000	56,265000
2,851904	-0,110973	19,396	-0,058079	22,460000	56,265000
2,851905	-0,230123	19,446	-0,058128	22,460000	56,265000
2,851903	0,007009	19,496	-0,058029	22,460000	56,265000
2,851901	-0,119150	19,546	-0,058082	22,460000	56,265000
2,851916	-0,221946	19,596	-0,058125	22,460000	56,265000
2,851934	0,000000	19,646	-0,058032	22,460000	56,265000
2,851922	-0,039717	19,696	-0,058049	22,460000	56,265000
2,851919	0,110973	19,746	-0,057986	22,460000	56,265000
2,851900	0,212601	19,796	-0,057943	22,460000	56,265000
2,851948	0,142513	19,846	-0,057973	22,460000	56,265000
2,851961	-0,238300	19,896	-0,058132	22,460000	56,265000
2,851890	0,086442	19,946	-0,057996	22,460000	56,265000
2,851895	-0,348105	19,996	-0,058178	22,460000	56,265000
2,851910	-0,301379	20,046	-0,058158	22,460000	56,265000
2,851922	-0,094619	20,096	-0,058072	22,460000	56,265000
2,851913	-0,213769	20,146	-0,058122	22,460000	56,265000
2,851963	-0,071256	20,196	-0,058062	22,460000	56,265000
2,851913	-0,268672	20,246	-0,058145	22,460000	56,265000
2,851963	-0,213769	20,297	-0,058122	22,460000	56,265000
2,851948	-0,285025	20,347	-0,058151	22,460000	56,265000
2,851909	-0,221946	20,397	-0,058125	22,460000	56,265000
2,851930	-0,482441	20,447	-0,058234	22,460000	56,265000
2,851932	-0,253486	20,498	-0,058138	22,470000	56,240000
2,852465	0,434547	20,540	-0,057851	22,470000	56,240000
2,852469	0,245309	20,590	-0,057930	22,470000	56,240000
2,852526	0,117982	20,641	-0,057983	22,470000	56,240000
2,852491	0,134336	20,691	-0,057976	22,470000	56,240000
2,852399	0,640139	20,742	-0,057765	22,470000	56,240000
2,852377	0,371468	20,792	-0,057877	22,470000	56,240000
2,852402	0,237132	20,842	-0,057933	22,470000	56,240000
2,852429	0,419361	20,892	-0,057857	22,470000	56,240000
2,852393	0,142513	20,942	-0,057973	22,470000	56,240000
2,852405	0,142513	20,993	-0,057973	22,470000	56,240000
2,852451	0,348105	21,043	-0,057887	22,470000	56,240000
2,852428	-0,024531	21,094	-0,058042	22,470000	56,240000
2,852429	0,228955	21,144	-0,057937	22,470000	56,240000
2,852455	0,174052	21,195	-0,057959	22,470000	56,240000
2,852379	0,237132	21,246	-0,057933	22,470000	56,240000
2,852423	0,007009	21,296	-0,058029	22,470000	56,240000
2,852374	0,570051	21,346	-0,057794	22,470000	56,240000
2,852447	0,063079	21,396	-0,058006	22,470000	56,240000
2,852378	0,688033	21,447	-0,057745	22,470000	56,240000
2,852392	0,348105	21,497	-0,057887	22,470000	56,240000
2,852415	0,459078	21,547	-0,057840	22,470000	56,240000
2,852444	-0,221946	21,597	-0,058125	22,470000	56,240000
2,852427	0,371468	21,647	-0,057877	22,470000	56,240000
2,852464	0,371468	21,697	-0,057877	22,470000	56,240000
2,852369	0,228955	21,750	-0,057937	22,470000	56,240000
2,852413	0,245309	21,800	-0,057930	22,470000	56,240000
2,852384	0,197415	21,850	-0,057950	22,470000	56,240000
2,852372	0,403007	21,901	-0,057864	22,470000	56,240000
2,852448	0,434547	21,951	-0,057851	22,470000	56,240000
2,852442	0,228955	22,002	-0,057937	22,470000	56,240000
2,852551	0,371468	22,052	-0,057877	22,470000	56,240000
2,852410	0,094619	22,103	-0,057993	22,470000	56,240000
2,852431	0,078265	22,153	-0,058000	22,470000	56,240000
2,852386	0,189238	22,204	-0,057953	22,470000	56,240000
2,852443	0,197415	22,255	-0,057950	22,470000	56,240000
2,852498	0,308388	22,305	-0,057903	22,470000	56,240000
2,852403	0,363291	22,355	-0,057880	22,470000	56,240000
2,852401	0,356282	22,405	-0,057883	22,470000	56,240000
2,852485	0,300211	22,455	-0,057907	22,470000	56,240000
2,852489	0,285025	22,505	-0,057913	22,460000	56,240000
2,852380	0,719572	22,556	-0,057731	22,460000	56,240000
2,852421	0,268672	22,606	-0,057920	22,460000	56,240000
2,852413	0,459078	22,657	-0,057840	22,460000	56,240000
2,852406	0,426370	22,707	-0,057854	22,460000	56,240000
2,852470	0,537343	22,757	-0,057808	22,460000	56,240000
2,852436	0,671679	22,808	-0,057751	22,460000	56,240000
2,852370	0,459078	22,858	-0,057840	22,460000	56,240000
2,852422	0,434547	22,908	-0,057851	22,460000	56,240000
2,852392	0,711395	22,958	-0,057735	22,460000	56,240000
2,852369	0,339928	23,008	-0,057890	22,460000	56,240000
2,852475	0,537343	23,059	-0,057808	22,460000	56,240000
2,852439	0,530334	23,109	-0,057811	22,460000	56,240000
2,852423	0,268672	23,160	-0,057920	22,460000	56,240000
2,852414	0,419361	23,211	-0,057857	22,460000	56,240000
2,852459	0,830545	23,262	-0,057685	22,460000	56,240000
2,852467	0,237132	23,312	-0,057933	22,460000	56,240000
2,852433	0,023363	23,362	-0,058022	22,460000	56,240000
2,852411	0,735926	23,413	-0,057725	22,460000	56,240000
2,852434	0,497626	23,465	-0,057824	22,460000	56,240000
2,852416	0,601591	23,515	-0,057781	22,460000	56,240000
2,852460	0,553697	23,565	-0,057801	22,460000	56,240000
2,852412	0,624953	23,615	-0,057771	22,460000	56,240000
2,852412	0,679856	23,665	-0,057748	22,460000	56,240000
2,852378	0,608599	23,715	-0,057778	22,460000	56,240000
2,852423	0,608599	23,766	-0,057778	22,460000	56,240000
2,852488	0,704387	23,816	-0,057738	22,460000	56,240000
2,852434	0,419361	23,866	-0,057857	22,460000	56,240000
2,852466	0,379645	23,916	-0,057874	22,460000	56,240000
2,852425	0,570051	23,966	-0,057794	22,460000	56,240000
2,852402	0,450901	24,016	-0,057844	22,460000	56,240000
2,852423	0,570051	24,067	-0,057794	22,460000	56,240000
2,852425	0,593414	24,117	-0,057784	22,460000	56,240000
2,852460	0,585237	24,168	-0,057788	22,460000	56,240000
2,852428	0,671679	24,218	-0,057751	22,460000	56,240000
2,852418	0,822368	24,268	-0,057688	22,460000	56,240000
2,852435	0,339928	24,319	-0,057890	22,460000	56,240000
2,852454	0,450901	24,369	-0,057844	22,460000	56,240000
2,852438	0,782652	24,420	-0,057705	22,460000	56,240000
2,852440	0,648316	24,470	-0,057761	22,460000	56,240000
2,852458	0,505803	24,521	-0,057821	22,450000	56,240000
2,852437	0,285025	24,571	-0,057913	22,450000	56,240000
2,852467	0,561874	24,621	-0,057797	22,450000	56,240000
2,852468	0,466087	24,671	-0,057837	22,450000	56,240000
2,852419	0,497626	24,722	-0,057824	22,450000	56,240000
2,852429	0,561874	24,772	-0,057797	22,450000	56,240000
2,852392	0,371468	24,822	-0,057877	22,450000	56,240000
2,852431	0,379645	24,873	-0,057874	22,450000	56,240000
2,852446	0,570051	24,923	-0,057794	22,450000	56,240000
2,852393	1,091040	24,974	-0,057576	22,450000	56,240000
2,852431	0,023363	25,024	-0,058022	22,450000	56,240000
2,852410	0,474264	25,074	-0,057834	22,450000	56,240000
2,852429	0,751112	25,125	-0,057718	22,450000	56,240000
2,852454	0,553697	25,175	-0,057801	22,450000	56,240000
2,852410	0,782652	25,225	-0,057705	22,450000	56,240000
2,852439	0,522157	25,275	-0,057814	22,450000	56,240000
2,852431	0,688033	25,325	-0,057745	22,450000	56,240000
2,852420	0,830545	25,375	-0,057685	22,450000	56,240000
2,852446	0,593414	25,425	-0,057784	22,450000	56,240000
2,852394	0,505803	25,475	-0,057821	22,450000	56,240000
2,852395	0,466087	25,525	-0,057837	22,450000	56,240000
2,852397	0,608599	25,575	-0,057778	22,450000	56,240000
2,852403	0,616776	25,625	-0,057774	22,450000	56,240000
2,852395	0,790829	25,675	-0,057702	22,450000	56,240000
2,852386	0,624953	25,725	-0,057771	22,450000	56,240000
2,852439	0,735926	25,775	-0,057725	22,450000	56,240000
2,852454	0,735926	25,825	-0,057725	22,450000	56,240000
2,852425	0,474264	25,875	-0,057834	22,450000	56,240000
2,852421	0,474264	25,925	-0,057834	22,450000	56,240000
2,852419	0,782652	25,975	-0,057705	22,450000	56,240000
2,852404	0,394830	26,025	-0,057867	22,450000	56,240000
2,852372	0,790829	26,075	-0,057702	22,450000	56,240000
2,852374	0,268672	26,126	-0,057920	22,450000	56,240000
2,852450	0,450901	26,177	-0,057844	22,450000	56,240000
2,852427	0,815360	26,228	-0,057691	22,450000	56,240000
2,852437	0,853908	26,279	-0,057675	22,450000	56,240000
2,852429	0,331751	26,329	-0,057894	22,450000	56,240000
2,852428	1,123748	26,379	-0,057563	22,450000	56,240000
2,852417	1,107394	26,430	-0,057569	22,450000	56,240000
2,852453	0,862085	26,480	-0,057672	22,450000	56,240000
2,852421	0,331751	26,530	-0,057894	22,460000	56,280000
2,852381	0,570051	26,580	-0,057794	22,460000	56,280000
2,852459	0,656493	26,630	-0,057758	22,460000	56,280000
2,852424	0,807183	26,680	-0,057695	22,460000	56,280000
2,852448	0,696210	26,730	-0,057741	22,460000	56,280000
2,852414	0,530334	26,780	-0,057811	22,460000	56,280000
2,852433	0,845731	26,830	-0,057679	22,460000	56,280000
2,852383	0,442724	26,880	-0,057847	22,460000	56,280000
2,852399	0,561874	26,930	-0,057797	22,460000	56,280000
2,852453	0,711395	26,980	-0,057735	22,460000	56,280000
2,852356	0,845731	27,030	-0,057679	22,460000	56,280000
2,852484	0,474264	27,080	-0,057834	22,460000	56,280000
2,852465	0,782652	27,131	-0,057705	22,460000	56,280000
2,852391	0,751112	27,181	-0,057718	22,460000	56,280000
2,852426	0,656493	27,231	-0,057758	22,460000	56,280000
2,852424	1,052491	27,281	-0,057592	22,460000	56,280000
2,852439	0,735926	27,331	-0,057725	22,460000	56,280000
2,852408	0,553697	27,399	-0,057801	22,460000	56,280000
2,852410	0,925164	27,449	-0,057646	22,460000	56,280000
2,852366	0,719572	27,499	-0,057731	22,460000	56,280000
2,852411	0,744103	27,549	-0,057721	22,460000	56,280000
2,852395	0,601591	27,599	-0,057781	22,460000	56,280000
2,852510	0,671679	27,649	-0,057751	22,460000	56,280000
2,852382	0,696210	27,699	-0,057741	22,460000	56,280000
2,852451	1,075854	27,754	-0,057583	22,460000	56,280000
2,852403	0,901802	27,804	-0,057655	22,460000	56,280000
2,852447	0,711395	27,854	-0,057735	22,460000	56,280000
2,852434	0,822368	27,904	-0,057688	22,460000	56,280000
2,852382	0,964881	27,955	-0,057629	22,460000	56,280000
2,852431	0,530334	28,005	-0,057811	22,460000	56,280000
2,852381	0,450901	28,055	-0,057844	22,460000	56,280000
2,852419	0,751112	28,105	-0,057718	22,460000	56,280000
2,852423	1,004598	28,155	-0,057612	22,460000	56,280000
2,852393	1,052491	28,206	-0,057592	22,460000	56,280000
2,852446	0,933341	28,256	-0,057642	22,460000	56,280000
2,852451	0,608599	28,306	-0,057778	22,460000	56,280000
2,852466	0,696210	28,357	-0,057741	22,460000	56,280000
2,852422	0,790829	28,407	-0,057702	22,460000	56,280000
2,852443	0,616776	28,457	-0,057774	22,460000	56,280000
2,852422	0,751112	28,507	-0,057718	22,460000	56,280000
2,852464	0,775643	28,557	-0,057708	22,460000	56,280000
2,852473	0,799006	28,608	-0,057698	22,460000	56,280000
2,852495	0,735926	28,658	-0,057725	22,460000	56,280000
2,852460	0,767466	28,708	-0,057711	22,460000	56,280000
2,852477	0,782652	28,760	-0,057705	22,460000	56,280000
2,852465	0,853908	28,810	-0,057675	22,460000	56,280000
2,852387	0,782652	28,860	-0,057705	22,460000	56,280000
2,852422	0,679856	28,910	-0,057748	22,460000	56,280000
2,852470	0,490618	28,960	-0,057827	22,460000	56,280000
2,852444	0,815360	29,011	-0,057691	22,460000	56,280000
2,852481	0,434547	29,062	-0,057851	22,460000	56,280000
2,852365	0,671679	29,112	-0,057751	22,460000	56,280000
2,852477	0,775643	29,162	-0,057708	22,460000	56,280000
2,852421	0,807183	29,213	-0,057695	22,460000	56,280000
2,852425	0,656493	29,264	-0,057758	22,460000	56,280000
2,852406	0,616776	29,315	-0,057774	22,460000	56,280000
2,852435	0,759289	29,365	-0,057715	22,460000	56,280000
2,852420	0,949695	29,415	-0,057635	22,460000	56,280000
2,852381	0,711395	29,465	-0,057735	22,460000	56,280000
2,852390	0,608599	29,515	-0,057778	22,460000	56,280000
2,852422	0,513980	29,565	-0,057817	22,460000	56,280000
2,852454	0,830545	29,615	-0,057685	22,460000	56,280000
2,852394	0,838722	29,665	-0,057682	22,460000	56,280000
2,852432	0,909979	29,716	-0,057652	22,460000	56,280000
2,852407	0,759289	29,767	-0,057715	22,460000	56,280000
2,852385	0,767466	29,817	-0,057711	22,460000	56,280000
2,852430	0,845731	29,867	-0,057679	22,460000	56,280000
2,852446	0,782652	29,917	-0,057705	22,460000	56,280000
2,852372	0,633130	29,968	-0,057768	22,460000	56,280000
2,852389	0,727749	30,018	-0,057728	22,460000	56,280000
2,852392	0,688033	30,068	-0,057745	22,460000	56,280000
2,852426	0,759289	30,119	-0,057715	22,460000	56,280000
2,852438	0,782652	30,169	-0,057705	22,460000	56,280000
2,852460	0,252318	30,219	-0,057927	22,460000	56,280000
2,852479	0,157698	30,269	-0,057966	22,460000	56,280000
2,852465	0,949695	30,319	-0,057635	22,460000	56,280000
2,852381	0,925164	30,369	-0,057646	22,460000	56,280000
2,852382	0,727749	30,420	-0,057728	22,460000	56,280000
2,852446	0,276848	30,470	-0,057917	22,460000	56,280000
2,852475	0,671679	30,521	-0,057751	22,460000	56,240000
2,852368	0,799006	30,571	-0,057698	22,460000	56,240000
2,852464	0,845731	30,621	-0,057679	22,460000	56,240000
2,852394	0,633130	30,672	-0,057768	22,460000	56,240000
2,851870	0,648316	30,706	-0,057761	22,460000	56,240000
2,851937	0,260495	30,756	-0,057923	22,460000	56,240000
2,851901	0,252318	30,806	-0,057927	22,460000	56,240000
2,851963	0,482441	30,856	-0,057831	22,460000	56,240000
2,851973	0,561874	30,906	-0,057797	22,460000	56,240000
2,851929	0,117982	30,956	-0,057983	22,460000	56,240000
2,851941	0,339928	31,006	-0,057890	22,460000	56,240000
2,851927	0,237132	31,056	-0,057933	22,460000	56,240000
2,851906	0,394830	31,106	-0,057867	22,460000	56,240000
2,851906	0,046725	31,156	-0,058013	22,460000	56,240000
2,851936	0,015186	31,206	-0,058026	22,460000	56,240000
2,851918	0,228955	31,256	-0,057937	22,460000	56,240000
2,851900	0,308388	31,306	-0,057903	22,460000	56,240000
2,851940	0,276848	31,356	-0,057917	22,460000	56,240000
2,851877	0,285025	31,406	-0,057913	22,460000	56,240000
2,851917	0,459078	31,456	-0,057840	22,460000	56,240000
2,851946	-0,024531	31,506	-0,058042	22,460000	56,240000
2,851913	0,593414	31,557	-0,057784	22,460000	56,240000
2,851959	0,434547	31,608	-0,057851	22,460000	56,240000
2,851909	0,212601	31,658	-0,057943	22,460000	56,240000
2,851930	0,671679	31,708	-0,057751	22,460000	56,240000
2,851920	0,387821	31,758	-0,057870	22,460000	56,240000
2,851929	0,316565	31,809	-0,057900	22,460000	56,240000
2,851960	0,174052	31,859	-0,057959	22,460000	56,240000
2,851914	0,237132	31,910	-0,057933	22,460000	56,240000
2,851947	0,426370	31,960	-0,057854	22,460000	56,240000
2,851958	0,394830	32,010	-0,057867	22,460000	56,240000
2,851949	0,403007	32,060	-0,057864	22,460000	56,240000
2,851902	0,174052	32,110	-0,057959	22,460000	56,240000
2,851929	0,577060	32,160	-0,057791	22,460000	56,240000
2,851924	0,220778	32,210	-0,057940	22,460000	56,240000
2,851896	0,078265	32,260	-0,058000	22,460000	56,240000
2,851914	0,197415	32,311	-0,057950	22,460000	56,240000
2,851899	0,379645	32,361	-0,057874	22,460000	56,240000
2,851936	0,268672	32,411	-0,057920	22,460000	56,240000
2,851954	0,577060	32,462	-0,057791	22,460000	56,240000
2,851919	0,577060	32,512	-0,057791	22,460000	56,265000
2,851925	0,260495	32,563	-0,057923	22,460000	56,265000
2,851920	0,324742	32,613	-0,057896	22,460000	56,265000
2,851910	0,387821	32,663	-0,057870	22,460000	56,265000
2,851874	0,482441	32,713	-0,057831	22,460000	56,265000
2,851918	0,316565	32,764	-0,057900	22,460000	56,265000
2,851969	0,403007	32,814	-0,057864	22,460000	56,265000
2,851945	0,117982	32,865	-0,057983	22,460000	56,265000
2,851913	0,292034	32,915	-0,057910	22,460000	56,265000
2,851912	0,466087	32,966	-0,057837	22,460000	56,265000
2,851910	0,482441	33,016	-0,057831	22,460000	56,265000
2,851858	-0,102796	33,066	-0,058075	22,460000	56,265000
2,851886	-0,221946	33,117	-0,058125	22,460000	56,265000
2,851940	0,292034	33,168	-0,057910	22,460000	56,265000
2,851936	0,086442	33,218	-0,057996	22,460000	56,265000
2,851937	0,466087	33,268	-0,057837	22,460000	56,265000
2,851926	0,371468	33,319	-0,057877	22,460000	56,265000
2,851924	0,371468	33,369	-0,057877	22,460000	56,265000
2,851943	0,505803	33,419	-0,057821	22,460000	56,265000
2,851913	0,268672	33,469	-0,057920	22,460000	56,265000
2,851883	0,165875	33,519	-0,057963	22,460000	56,265000
2,851950	0,394830	33,569	-0,057867	22,460000	56,265000
2,851907	0,403007	33,620	-0,057864	22,460000	56,265000
2,851911	0,150690	33,671	-0,057969	22,460000	56,265000
2,851885	0,260495	33,721	-0,057923	22,460000	56,265000
2,851948	0,648316	33,772	-0,057761	22,460000	56,265000
2,851931	0,126159	33,823	-0,057979	22,460000	56,265000
2,851888	0,023363	33,874	-0,058022	22,460000	56,265000
2,851917	0,711395	33,924	-0,057735	22,460000	56,265000
2,851954	0,664670	33,975	-0,057754	22,460000	56,265000
2,851964	0,134336	34,026	-0,057976	22,460000	56,265000
2,851935	-0,087610	34,076	-0,058069	22,460000	56,265000
2,851900	-0,174052	34,126	-0,058105	22,460000	56,265000
2,851907	0,537343	34,183	-0,057808	22,460000	56,265000
2,851923	0,379645	34,233	-0,057874	22,460000	56,265000
2,851896	0,007009	34,283	-0,058029	22,460000	56,265000
2,851955	0,212601	34,333	-0,057943	22,460000	56,265000
2,851897	0,086442	34,384	-0,057996	22,460000	56,265000
2,851952	0,134336	34,434	-0,057976	22,460000	56,265000
2,851913	0,102796	34,484	-0,057989	22,460000	56,265000
2,851948	0,007009	34,534	-0,058029	22,450000	56,265000
2,851971	0,023363	34,589	-0,058022	22,450000	56,265000
2,851912	0,205592	34,639	-0,057946	22,450000	56,265000
2,851898	0,212601	34,689	-0,057943	22,450000	56,265000
2,851930	0,102796	34,740	-0,057989	22,450000	56,265000
2,851907	0,276848	34,790	-0,057917	22,450000	56,265000
2,851877	0,134336	34,840	-0,057976	22,450000	56,265000
2,851908	0,434547	34,891	-0,057851	22,450000	56,265000
2,851930	0,292034	34,947	-0,057910	22,450000	56,265000
2,851888	0,292034	34,997	-0,057910	22,450000	56,265000
2,851945	0,110973	35,047	-0,057986	22,450000	56,265000
2,851909	-0,047894	35,098	-0,058052	22,450000	56,265000
2,851922	0,276848	35,148	-0,057917	22,450000	56,265000
2,851947	0,292034	35,199	-0,057910	22,450000	56,265000
2,851931	-0,094619	35,249	-0,058072	22,450000	56,265000
2,851896	0,150690	35,299	-0,057969	22,450000	56,265000
2,851983	0,054902	35,358	-0,058009	22,450000	56,265000
2,851881	0,490618	35,408	-0,057827	22,450000	56,265000
2,851920	0,174052	35,458	-0,057959	22,450000	56,265000
2,851879	0,228955	35,508	-0,057937	22,450000	56,265000
2,851951	0,513980	35,558	-0,057817	22,450000	56,265000
2,851908	0,205592	35,609	-0,057946	22,450000	56,265000
2,851891	0,300211	35,659	-0,057907	22,450000	56,265000
2,851904	0,466087	35,709	-0,057837	22,450000	56,265000
2,851983	0,497626	35,759	-0,057824	22,450000	56,265000
2,851949	0,268672	35,809	-0,057920	22,450000	56,265000
2,851911	0,570051	35,859	-0,057794	22,450000	56,265000
2,851903	0,237132	35,909	-0,057933	22,450000	56,265000
2,851887	0,252318	35,959	-0,057927	22,450000	56,265000
2,851881	0,300211	36,010	-0,057907	22,450000	56,265000
2,851891	0,212601	36,060	-0,057943	22,450000	56,265000
2,851917	0,063079	36,110	-0,058006	22,450000	56,265000
2,851901	0,181061	36,160	-0,057957	22,450000	56,265000
2,851953	0,394830	36,210	-0,057867	22,450000	56,265000
2,851923	0,189238	36,260	-0,057953	22,450000	56,265000
2,851885	0,174052	36,310	-0,057959	22,450000	56,265000
2,851925	0,126159	36,360	-0,057979	22,450000	56,265000
2,851964	0,466087	36,410	-0,057837	22,450000	56,265000
2,851912	0,039717	36,460	-0,058016	22,450000	56,265000
2,851927	0,426370	36,510	-0,057854	22,450000	56,240000
2,851954	0,237132	36,560	-0,057933	22,450000	56,240000
2,851920	0,165875	36,610	-0,057963	22,450000	56,240000
2,851987	0,679856	36,660	-0,057748	22,450000	56,240000
2,851949	0,220778	36,710	-0,057940	22,450000	56,240000
2,851980	0,348105	36,760	-0,057887	22,450000	56,240000
2,851887	-0,016354	36,810	-0,058039	22,450000	56,240000
2,851930	-0,047894	36,861	-0,058052	22,450000	56,240000
2,851937	0,046725	36,912	-0,058013	22,450000	56,240000
2,851891	0,292034	36,962	-0,057910	22,450000	56,240000
2,851965	0,285025	37,012	-0,057913	22,450000	56,240000
2,851892	0,513980	37,062	-0,057817	22,450000	56,240000
2,851945	0,331751	37,112	-0,057894	22,450000	56,240000
2,851942	0,245309	37,163	-0,057930	22,450000	56,240000
2,851933	0,285025	37,213	-0,057913	22,450000	56,240000
2,851954	0,260495	37,263	-0,057923	22,450000	56,240000
2,851920	0,063079	37,313	-0,058006	22,450000	56,240000
2,851970	0,434547	37,363	-0,057851	22,450000	56,240000
2,851947	0,252318	37,414	-0,057927	22,450000	56,240000
2,851902	0,181061	37,465	-0,057957	22,450000	56,240000
2,851913	0,245309	37,515	-0,057930	22,450000	56,240000
2,851951	0,292034	37,565	-0,057910	22,450000	56,240000
2,851898	-0,087610	37,615	-0,058069	22,450000	56,240000
2,851863	0,490618	37,665	-0,057827	22,450000	56,240000
2,851921	0,078265	37,715	-0,058000	22,450000	56,240000
2,851921	0,268672	37,766	-0,057920	22,450000	56,240000
2,851896	0,007009	37,816	-0,058029	22,450000	56,240000
2,851873	0,419361	37,866	-0,057857	22,450000	56,240000
2,851956	0,387821	37,916	-0,057870	22,450000	56,240000
2,851898	0,102796	37,966	-0,057989	22,450000	56,240000
2,851952	0,220778	38,016	-0,057940	22,450000	56,240000
2,851931	0,245309	38,067	-0,057930	22,450000	56,240000
2,851946	0,292034	38,117	-0,057910	22,450000	56,240000
2,851937	0,513980	38,168	-0,057817	22,450000	56,240000
2,851948	-0,016354	38,218	-0,058039	22,450000	56,240000
2,851932	0,228955	38,268	-0,057937	22,450000	56,240000
2,851886	0,379645	38,318	-0,057874	22,450000	56,240000
2,851975	0,371468	38,368	-0,057877	22,450000	56,240000
2,851894	0,015186	38,418	-0,058026	22,450000	56,240000
2,851915	0,537343	38,468	-0,057808	22,450000	56,240000
2,851999	-0,119150	38,519	-0,058082	22,450000	56,240000
2,851906	0,537343	38,570	-0,057808	22,450000	56,240000
2,851907	0,505803	38,620	-0,057821	22,450000	56,240000
2,851960	0,165875	38,670	-0,057963	22,450000	56,240000
2,851929	0,245309	38,722	-0,057930	22,450000	56,240000
2,851959	0,102796	38,772	-0,057989	22,450000	56,240000
2,851915	0,181061	38,823	-0,057957	22,450000	56,240000
2,851943	-0,190406	38,873	-0,058112	22,450000	56,240000
2,851963	0,442724	38,923	-0,057847	22,450000	56,240000
2,851899	0,212601	38,981	-0,057943	22,450000	56,240000
2,851873	0,331751	39,031	-0,057894	22,450000	56,240000
2,851899	0,308388	39,081	-0,057903	22,450000	56,240000
2,851872	0,513980	39,131	-0,057817	22,450000	56,240000
2,851960	0,054902	39,182	-0,058009	22,450000	56,240000
2,851950	0,324742	39,233	-0,057896	22,450000	56,240000
2,851914	0,134336	39,283	-0,057976	22,450000	56,240000
2,851877	0,007009	39,334	-0,058029	22,450000	56,240000
2,851931	0,387821	39,384	-0,057870	22,450000	56,240000
2,851896	0,292034	39,435	-0,057910	22,450000	56,240000
2,851930	0,379645	39,485	-0,057874	22,450000	56,240000
2,851901	0,285025	39,536	-0,057913	22,450000	56,240000
2,851966	-0,230123	39,586	-0,058128	22,450000	56,240000
2,851943	-0,094619	39,636	-0,058072	22,450000	56,240000
2,851932	0,285025	39,686	-0,057913	22,450000	56,240000
2,851957	0,434547	39,736	-0,057851	22,450000	56,240000
2,851985	0,015186	39,787	-0,058026	22,450000	56,240000
2,851885	-0,158867	39,838	-0,058099	22,450000	56,240000
2,851871	0,505803	39,888	-0,057821	22,450000	56,240000
2,851932	0,530334	39,938	-0,057811	22,450000	56,240000
2,851938	0,300211	39,989	-0,057907	22,450000	56,240000
2,851951	0,593414	40,041	-0,057784	22,450000	56,240000
2,851932	0,189238	40,093	-0,057953	22,450000	56,240000
2,851933	0,356282	40,143	-0,057883	22,450000	56,240000
2,851926	0,268672	40,193	-0,057920	22,450000	56,240000
2,851916	-0,039717	40,244	-0,058049	22,450000	56,240000
2,851968	-0,008177	40,294	-0,058036	22,450000	56,240000
2,851932	-0,261663	40,344	-0,058142	22,450000	56,240000
2,851924	0,150690	40,394	-0,057969	22,450000	56,240000
2,851893	0,181061	40,444	-0,057957	22,450000	56,240000
2,851953	-0,079433	40,494	-0,058065	22,450000	56,240000
2,851915	0,387821	40,544	-0,057870	22,450000	56,265000
2,851930	0,339928	40,594	-0,057890	22,450000	56,265000
2,851943	0,071256	40,644	-0,058002	22,450000	56,265000
2,851934	0,134336	40,694	-0,057976	22,450000	56,265000
2,851898	0,561874	40,745	-0,057797	22,450000	56,265000
2,851897	0,331751	40,795	-0,057894	22,450000	56,265000
2,851900	-0,190406	40,845	-0,058112	22,450000	56,265000
2,852430	-0,127327	40,879	-0,058085	22,450000	56,265000
2,852388	0,260495	40,929	-0,057923	22,450000	56,265000
2,852429	0,633130	40,979	-0,057768	22,450000	56,265000
2,852437	0,577060	41,029	-0,057791	22,450000	56,265000
2,852407	0,379645	41,079	-0,057874	22,450000	56,265000
2,852444	0,973058	41,129	-0,057625	22,450000	56,265000
2,852394	0,815360	41,179	-0,057691	22,450000	56,265000
2,852395	0,949695	41,229	-0,057635	22,450000	56,265000
2,852420	0,356282	41,279	-0,057883	22,450000	56,265000
2,852384	0,885448	41,329	-0,057662	22,450000	56,265000
2,852482	0,553697	41,383	-0,057801	22,450000	56,265000
2,852433	0,608599	41,434	-0,057778	22,450000	56,265000
2,852435	0,426370	41,484	-0,057854	22,450000	56,265000
2,852439	0,878439	41,534	-0,057665	22,450000	56,265000
2,852469	0,648316	41,585	-0,057761	22,450000	56,265000
2,852437	0,775643	41,635	-0,057708	22,450000	56,265000
2,852407	0,593414	41,685	-0,057784	22,450000	56,265000
2,852428	0,719572	41,735	-0,057731	22,450000	56,265000
2,852452	0,862085	41,785	-0,057672	22,450000	56,265000
2,852444	0,522157	41,835	-0,057814	22,450000	56,265000
2,852403	0,885448	41,885	-0,057662	22,450000	56,265000
2,852381	0,815360	41,935	-0,057691	22,450000	56,265000
2,852458	0,893625	41,985	-0,057659	22,450000	56,265000
2,852422	0,838722	42,035	-0,057682	22,450000	56,265000
2,852436	0,679856	42,085	-0,057748	22,450000	56,265000
2,852429	0,656493	42,135	-0,057758	22,450000	56,265000
2,852383	0,696210	42,188	-0,057741	22,450000	56,265000
2,852400	0,656493	42,238	-0,057758	22,450000	56,265000
2,852426	0,585237	42,288	-0,057788	22,450000	56,265000
2,852455	0,807183	42,339	-0,057695	22,450000	56,265000
2,852421	0,616776	42,389	-0,057774	22,450000	56,265000
2,852441	0,853908	42,440	-0,057675	22,450000	56,265000
2,852431	0,830545	42,491	-0,057685	22,450000	56,265000
2,852402	0,419361	42,541	-0,057857	22,460000	56,265000
2,852374	0,901802	42,592	-0,057655	22,460000	56,265000
2,852425	0,585237	42,644	-0,057788	22,460000	56,265000
2,852439	1,029129	42,694	-0,057602	22,460000	56,265000
2,852409	0,466087	42,745	-0,057837	22,460000	56,265000
2,852404	0,513980	42,795	-0,057817	22,460000	56,265000
2,852452	0,853908	42,845	-0,057675	22,460000	56,265000
2,852415	0,727749	42,895	-0,057728	22,460000	56,265000
2,852406	0,853908	42,950	-0,057675	22,460000	56,265000
2,852417	0,505803	43,000	-0,057821	22,460000	56,265000
2,852405	0,530334	43,050	-0,057811	22,460000	56,265000
2,852449	0,411184	43,100	-0,057860	22,460000	56,265000
2,852400	0,434547	43,150	-0,057851	22,460000	56,265000
2,852441	0,387821	43,201	-0,057870	22,460000	56,265000
2,852375	0,633130	43,251	-0,057768	22,460000	56,265000
2,852407	0,561874	43,301	-0,057797	22,460000	56,265000
2,852394	0,878439	43,356	-0,057665	22,460000	56,265000
2,852448	0,688033	43,407	-0,057745	22,460000	56,265000
2,852456	0,513980	43,457	-0,057817	22,460000	56,265000
2,852392	0,513980	43,507	-0,057817	22,460000	56,265000
2,852409	0,941518	43,557	-0,057639	22,460000	56,265000
2,852438	0,522157	43,607	-0,057814	22,460000	56,265000
2,852375	0,671679	43,657	-0,057751	22,460000	56,265000
2,852417	0,815360	43,707	-0,057691	22,460000	56,265000
2,852444	0,553697	43,762	-0,057801	22,460000	56,265000
2,852440	0,577060	43,812	-0,057791	22,460000	56,265000
2,852412	0,316565	43,863	-0,057900	22,460000	56,265000
2,852425	0,671679	43,913	-0,057751	22,460000	56,265000
2,852413	0,640139	43,964	-0,057765	22,460000	56,265000
2,852419	1,004598	44,015	-0,057612	22,460000	56,265000
2,852444	0,696210	44,065	-0,057741	22,460000	56,265000
2,852414	0,434547	44,115	-0,057851	22,460000	56,265000
2,852389	0,671679	44,165	-0,057751	22,460000	56,265000
2,852387	0,403007	44,215	-0,057864	22,460000	56,265000
2,852456	0,459078	44,265	-0,057840	22,460000	56,265000
2,852502	0,759289	44,315	-0,057715	22,460000	56,265000
2,852425	0,585237	44,365	-0,057788	22,460000	56,265000
2,852458	0,419361	44,415	-0,057857	22,460000	56,265000
2,852339	0,387821	44,466	-0,057870	22,460000	56,265000
2,852412	0,671679	44,516	-0,057751	22,460000	56,265000
2,852468	0,704387	44,566	-0,057738	22,460000	56,265000
2,852449	0,853908	44,616	-0,057675	22,460000	56,265000
2,852460	0,616776	44,666	-0,057774	22,460000	56,265000
2,852436	0,442724	44,716	-0,057847	22,460000	56,265000
2,852420	0,450901	44,766	-0,057844	22,460000	56,265000
2,852457	0,624953	44,816	-0,057771	22,460000	56,265000
2,852479	0,616776	44,866	-0,057774	22,460000	56,265000
2,852379	0,767466	44,916	-0,057711	22,460000	56,265000
2,852444	0,727749	44,966	-0,057728	22,460000	56,265000
2,852433	0,735926	45,016	-0,057725	22,460000	56,265000
2,852457	0,838722	45,066	-0,057682	22,460000	56,265000
2,852406	0,522157	45,116	-0,057814	22,460000	56,265000
2,852416	0,394830	45,166	-0,057867	22,460000	56,265000
2,852460	0,300211	45,216	-0,057907	22,460000	56,265000
2,852420	0,371468	45,266	-0,057877	22,460000	56,265000
2,852426	0,411184	45,317	-0,057860	22,460000	56,265000
2,852409	0,751112	45,367	-0,057718	22,460000	56,265000
2,852397	0,363291	45,417	-0,057880	22,460000	56,265000
2,852405	0,379645	45,468	-0,057874	22,460000	56,265000
2,852449	0,570051	45,518	-0,057794	22,460000	56,265000
2,852380	0,782652	45,568	-0,057705	22,460000	56,265000
2,852383	0,671679	45,618	-0,057751	22,460000	56,265000
2,852440	0,616776	45,668	-0,057774	22,460000	56,265000
2,852454	0,561874	45,718	-0,057797	22,460000	56,265000
2,852399	0,616776	45,768	-0,057774	22,460000	56,265000
2,852436	0,474264	45,818	-0,057834	22,460000	56,265000
2,852437	0,845731	45,868	-0,057679	22,460000	56,265000
2,852392	0,679856	45,919	-0,057748	22,460000	56,265000
2,852429	0,371468	45,969	-0,057877	22,460000	56,265000
2,852416	0,285025	46,019	-0,057913	22,460000	56,265000
2,852412	0,704387	46,069	-0,057738	22,460000	56,265000
2,852402	0,648316	46,119	-0,057761	22,460000	56,265000
2,852422	0,497626	46,169	-0,057824	22,460000	56,265000
2,852467	0,640139	46,219	-0,057765	22,460000	56,265000
2,852361	0,553697	46,270	-0,057801	22,460000	56,265000
2,852460	0,553697	46,320	-0,057801	22,460000	56,265000
2,852426	0,228955	46,370	-0,057937	22,460000	56,265000
2,852427	0,490618	46,420	-0,057827	22,460000	56,265000
2,852426	0,624953	46,470	-0,057771	22,460000	56,265000
2,852398	0,426370	46,520	-0,057854	22,460000	56,255000
2,852427	0,426370	46,570	-0,057854	22,460000	56,255000
2,852432	0,466087	46,620	-0,057837	22,460000	56,255000
2,852441	0,577060	46,670	-0,057791	22,460000	56,255000
2,852396	0,482441	46,720	-0,057831	22,460000	56,255000
2,852408	0,545520	46,771	-0,057804	22,460000	56,255000
2,852448	0,482441	46,821	-0,057831	22,460000	56,255000
2,852365	0,442724	46,871	-0,057847	22,460000	56,255000
2,852424	0,403007	46,921	-0,057864	22,460000	56,255000
2,852497	0,513980	46,971	-0,057817	22,460000	56,255000
2,852439	0,419361	47,021	-0,057857	22,460000	56,255000
2,852430	0,640139	47,071	-0,057765	22,460000	56,255000
2,852493	0,640139	47,122	-0,057765	22,460000	56,255000
2,852330	0,419361	47,173	-0,057857	22,460000	56,255000
2,852437	0,513980	47,223	-0,057817	22,460000	56,255000
2,852436	0,142513	47,273	-0,057973	22,460000	56,255000
2,852445	0,348105	47,323	-0,057887	22,460000	56,255000
2,852388	0,285025	47,373	-0,057913	22,460000	56,255000
2,852427	0,276848	47,423	-0,057917	22,460000	56,255000
2,852429	0,513980	47,473	-0,057817	22,460000	56,255000
2,852369	0,348105	47,524	-0,057887	22,460000	56,255000
2,852389	0,308388	47,574	-0,057903	22,460000	56,255000
2,852426	0,411184	47,624	-0,057860	22,460000	56,255000
2,852378	0,513980	47,674	-0,057817	22,460000	56,255000
2,852395	0,197415	47,725	-0,057950	22,460000	56,255000
2,852433	0,387821	47,775	-0,057870	22,460000	56,255000
2,852418	0,387821	47,825	-0,057870	22,460000	56,255000
2,852448	0,679856	47,875	-0,057748	22,460000	56,255000
2,852408	0,181061	47,925	-0,057957	22,460000	56,255000
2,852386	0,371468	47,975	-0,057877	22,460000	56,255000
2,852416	0,126159	48,025	-0,057979	22,460000	56,255000
2,852433	0,228955	48,075	-0,057937	22,460000	56,255000
2,852452	0,585237	48,126	-0,057788	22,460000	56,255000
2,852393	0,616776	48,176	-0,057774	22,460000	56,255000
2,852413	0,442724	48,227	-0,057847	22,460000	56,255000
2,852416	0,228955	48,278	-0,057937	22,460000	56,255000
2,852407	0,411184	48,328	-0,057860	22,460000	56,255000
2,852444	0,759289	48,378	-0,057715	22,460000	56,255000
2,852412	0,719572	48,429	-0,057731	22,460000	56,255000
2,852431	0,570051	48,479	-0,057794	22,460000	56,255000
2,852400	0,474264	48,530	-0,057834	22,460000	56,255000
2,852376	0,300211	48,585	-0,057907	22,460000	56,255000
2,852444	0,363291	48,635	-0,057880	22,460000	56,255000
2,852388	0,228955	48,685	-0,057937	22,460000	56,255000
2,852392	0,268672	48,735	-0,057920	22,460000	56,255000
2,852431	0,679856	48,786	-0,057748	22,460000	56,255000
2,852364	0,640139	48,837	-0,057765	22,460000	56,255000
2,852377	0,339928	48,887	-0,057890	22,460000	56,255000
2,852418	0,671679	48,937	-0,057751	22,460000	56,255000
2,852412	0,671679	48,998	-0,057751	22,460000	56,255000
2,852359	0,688033	49,048	-0,057745	22,460000	56,255000
2,852416	0,505803	49,098	-0,057821	22,460000	56,255000
2,852399	0,893625	49,148	-0,057659	22,460000	56,255000
2,852395	0,339928	49,198	-0,057890	22,460000	56,255000
2,852416	0,348105	49,248	-0,057887	22,460000	56,255000
2,852434	0,117982	49,298	-0,057983	22,460000	56,255000
2,852417	0,530334	49,348	-0,057811	22,460000	56,255000
2,852431	0,490618	49,398	-0,057827	22,460000	56,255000
2,852372	0,419361	49,448	-0,057857	22,460000	56,255000
2,852419	0,285025	49,498	-0,057913	22,460000	56,255000
2,852410	0,237132	49,549	-0,057933	22,460000	56,255000
2,852398	0,553697	49,599	-0,057801	22,460000	56,255000
2,852442	0,379645	49,649	-0,057874	22,460000	56,255000
2,852404	-0,127327	49,700	-0,058085	22,460000	56,255000
2,852425	0,482441	49,757	-0,057831	22,460000	56,255000
2,852451	0,260495	49,807	-0,057923	22,460000	56,255000
2,852424	0,450901	49,857	-0,057844	22,460000	56,255000
2,852453	0,237132	49,907	-0,057933	22,460000	56,255000
2,852435	0,276848	49,957	-0,057917	22,460000	56,255000
2,852450	0,348105	50,008	-0,057887	22,460000	56,255000
2,852405	0,601591	50,058	-0,057781	22,460000	56,255000
2,852353	0,348105	50,108	-0,057887	22,460000	56,255000
2,852425	0,426370	50,168	-0,057854	22,460000	56,255000
2,852431	-0,087610	50,218	-0,058069	22,460000	56,255000
2,852429	0,688033	50,270	-0,057745	22,460000	56,255000
2,852407	0,363291	50,320	-0,057880	22,460000	56,255000
2,852443	0,268672	50,370	-0,057920	22,460000	56,255000
2,852380	0,237132	50,420	-0,057933	22,460000	56,255000
2,852401	0,466087	50,470	-0,057837	22,460000	56,255000
2,852361	0,466087	50,521	-0,057837	22,460000	56,280000
2,852438	0,023363	50,571	-0,058022	22,460000	56,280000
2,852430	0,237132	50,621	-0,057933	22,460000	56,280000
2,852371	0,348105	50,672	-0,057887	22,460000	56,280000
2,852454	0,696210	50,723	-0,057741	22,460000	56,280000
2,852382	0,142513	50,773	-0,057973	22,460000	56,280000
2,852381	0,189238	50,824	-0,057953	22,460000	56,280000
2,852493	0,648316	50,875	-0,057761	22,460000	56,280000
2,852412	0,356282	50,925	-0,057883	22,460000	56,280000
2,852401	0,387821	50,975	-0,057870	22,460000	56,280000
2,852431	0,815360	51,025	-0,057691	22,460000	56,280000
2,851921	0,664670	51,056	-0,057754	22,460000	56,280000
2,851886	0,102796	51,106	-0,057989	22,460000	56,280000
2,851960	0,260495	51,156	-0,057923	22,460000	56,280000
2,851915	-0,198583	51,207	-0,058115	22,460000	56,280000
2,851924	-0,206760	51,258	-0,058119	22,460000	56,280000
2,851951	-0,182229	51,308	-0,058108	22,460000	56,280000
2,851852	0,197415	51,365	-0,057950	22,460000	56,280000
2,851946	-0,039717	51,416	-0,058049	22,460000	56,280000
2,851917	-0,016354	51,466	-0,058039	22,460000	56,280000
2,851988	-0,047894	51,516	-0,058052	22,460000	56,280000
2,851952	0,174052	51,566	-0,057959	22,460000	56,280000
2,851933	-0,016354	51,616	-0,058039	22,460000	56,280000
2,851952	-0,094619	51,666	-0,058072	22,460000	56,280000
2,851891	0,102796	51,716	-0,057989	22,460000	56,280000
2,851901	0,174052	51,766	-0,057959	22,460000	56,280000
2,851890	0,007009	51,816	-0,058029	22,460000	56,280000
2,851935	-0,024531	51,866	-0,058042	22,460000	56,280000
2,851919	-0,024531	51,917	-0,058042	22,460000	56,280000
2,851951	-0,190406	51,967	-0,058112	22,460000	56,280000
2,851889	0,181061	52,017	-0,057957	22,460000	56,280000
2,851924	-0,206760	52,068	-0,058119	22,460000	56,280000
2,851943	-0,087610	52,119	-0,058069	22,460000	56,280000
2,851919	0,054902	52,170	-0,058009	22,460000	56,280000
2,851935	-0,190406	52,220	-0,058112	22,460000	56,280000
2,851895	-0,626121	52,270	-0,058294	22,460000	56,280000
2,851927	-0,253486	52,321	-0,058138	22,460000	56,280000
2,851912	0,117982	52,371	-0,057983	22,460000	56,280000
2,851979	0,157698	52,421	-0,057966	22,460000	56,280000
2,851942	-0,127327	52,472	-0,058085	22,460000	56,280000
2,851909	-0,238300	52,522	-0,058132	22,460000	56,265000
2,851900	0,150690	52,572	-0,057969	22,460000	56,265000
2,851903	0,268672	52,623	-0,057920	22,460000	56,265000
2,851956	-0,102796	52,673	-0,058075	22,460000	56,265000
2,851919	0,023363	52,724	-0,058022	22,460000	56,265000
2,851927	0,071256	52,774	-0,058002	22,460000	56,265000
2,851856	0,205592	52,825	-0,057946	22,460000	56,265000
2,851875	-0,032708	52,875	-0,058046	22,460000	56,265000
2,851929	-0,110973	52,925	-0,058079	22,460000	56,265000
2,851881	-0,150690	52,975	-0,058095	22,460000	56,265000
2,851876	-0,024531	53,025	-0,058042	22,460000	56,265000
2,851933	-0,276848	53,076	-0,058148	22,460000	56,265000
2,851943	-0,230123	53,126	-0,058128	22,460000	56,265000
2,851923	-0,221946	53,176	-0,058125	22,460000	56,265000
2,851928	0,054902	53,227	-0,058009	22,460000	56,265000
2,851900	-0,102796	53,277	-0,058075	22,460000	56,265000
2,851927	0,071256	53,328	-0,058002	22,460000	56,265000
2,851902	-0,119150	53,378	-0,058082	22,460000	56,265000
2,851912	0,134336	53,428	-0,057976	22,460000	56,265000
2,851937	-0,024531	53,479	-0,058042	22,460000	56,265000
2,851916	-0,024531	53,529	-0,058042	22,460000	56,265000
2,851860	-0,221946	53,580	-0,058125	22,460000	56,265000
2,851901	-0,071256	53,630	-0,058062	22,460000	56,265000
2,851912	-0,087610	53,680	-0,058069	22,460000	56,265000
2,851963	-0,056071	53,730	-0,058056	22,460000	56,265000
2,851884	-0,387821	53,780	-0,058194	22,460000	56,265000
2,851928	0,339928	53,830	-0,057890	22,460000	56,265000
2,851909	-0,221946	53,880	-0,058125	22,460000	56,265000
2,851906	-0,475432	53,930	-0,058231	22,460000	56,265000
2,851898	-0,308388	53,980	-0,058161	22,460000	56,265000
2,851915	-0,238300	54,030	-0,058132	22,460000	56,265000
2,851908	0,117982	54,080	-0,057983	22,460000	56,265000
2,851950	-0,167044	54,130	-0,058102	22,460000	56,265000
2,851952	-0,293202	54,180	-0,058155	22,460000	56,265000
2,851841	-0,190406	54,230	-0,058112	22,460000	56,265000
2,851956	0,071256	54,280	-0,058002	22,460000	56,265000
2,851964	-0,206760	54,330	-0,058119	22,460000	56,265000
2,851924	-0,119150	54,380	-0,058082	22,460000	56,265000
2,851957	0,000000	54,430	-0,058032	22,460000	56,265000
2,851985	-0,324742	54,480	-0,058168	22,460000	56,265000
2,851940	-0,024531	54,531	-0,058042	22,450000	56,225000
2,851917	-0,039717	54,581	-0,058049	22,450000	56,225000
2,851870	-0,206760	54,632	-0,058119	22,450000	56,225000
2,851979	-0,071256	54,682	-0,058062	22,450000	56,225000
2,851913	-0,238300	54,734	-0,058132	22,450000	56,225000
2,851941	0,039717	54,785	-0,058016	22,450000	56,225000
2,851974	-0,087610	54,835	-0,058069	22,450000	56,225000
2,851969	0,174052	54,885	-0,057959	22,450000	56,225000
2,851928	-0,230123	54,935	-0,058128	22,450000	56,225000
2,851949	0,490618	54,985	-0,057827	22,450000	56,225000
2,851897	0,000000	55,035	-0,058032	22,450000	56,225000
2,851940	-0,372636	55,085	-0,058188	22,450000	56,225000
2,851915	0,459078	55,135	-0,057840	22,450000	56,225000
2,851936	0,039717	55,186	-0,058016	22,450000	56,225000
2,851897	-0,119150	55,236	-0,058082	22,450000	56,225000
2,851949	0,237132	55,286	-0,057933	22,450000	56,225000
2,851881	0,046725	55,336	-0,058013	22,450000	56,225000
2,851921	0,110973	55,386	-0,057986	22,450000	56,225000
2,851961	-0,142513	55,437	-0,058092	22,450000	56,225000
2,851886	0,063079	55,488	-0,058006	22,450000	56,225000
2,851924	-0,024531	55,538	-0,058042	22,450000	56,225000
2,851867	-0,110973	55,588	-0,058079	22,450000	56,225000
2,851916	-0,324742	55,638	-0,058168	22,450000	56,225000
2,851921	-0,356282	55,688	-0,058181	22,450000	56,225000
2,851911	-0,110973	55,739	-0,058079	22,450000	56,225000
2,851931	-0,427538	55,789	-0,058211	22,450000	56,225000
2,851983	-0,332919	55,840	-0,058171	22,450000	56,225000
2,851921	-0,047894	55,890	-0,058052	22,450000	56,225000
2,851915	0,046725	55,940	-0,058013	22,450000	56,225000
2,851937	-0,190406	55,991	-0,058112	22,450000	56,225000
2,851946	0,086442	56,041	-0,057996	22,450000	56,225000
2,851924	0,078265	56,091	-0,058000	22,450000	56,225000
2,851888	-0,032708	56,141	-0,058046	22,450000	56,225000
2,851890	0,245309	56,196	-0,057930	22,450000	56,225000
2,851943	0,071256	56,246	-0,058002	22,450000	56,225000
2,851918	0,023363	56,296	-0,058022	22,450000	56,225000
2,851912	-0,047894	56,346	-0,058052	22,450000	56,225000
2,851879	-0,206760	56,396	-0,058119	22,450000	56,225000
2,851940	-0,110973	56,446	-0,058079	22,450000	56,225000
2,851967	0,054902	56,496	-0,058009	22,450000	56,225000
2,851966	-0,190406	56,546	-0,058112	22,450000	56,225000
2,851914	0,197415	56,606	-0,057950	22,450000	56,225000
2,851917	-0,206760	56,656	-0,058119	22,450000	56,225000
2,851940	0,031540	56,706	-0,058019	22,450000	56,225000
2,851906	-0,047894	56,756	-0,058052	22,450000	56,225000
2,851934	-0,174052	56,806	-0,058105	22,450000	56,225000
2,851978	0,094619	56,856	-0,057993	22,450000	56,225000
2,851912	-0,016354	56,906	-0,058039	22,450000	56,225000
2,851871	0,181061	56,956	-0,057957	22,450000	56,225000
2,851877	-0,767466	57,006	-0,058353	22,450000	56,225000
2,851935	0,212601	57,056	-0,057943	22,450000	56,225000
2,851973	-0,261663	57,106	-0,058142	22,450000	56,225000
2,851937	-0,356282	57,156	-0,058181	22,450000	56,225000
2,851888	-0,412352	57,207	-0,058205	22,450000	56,225000
2,851887	-0,094619	57,258	-0,058072	22,450000	56,225000
2,851951	-0,174052	57,308	-0,058105	22,450000	56,225000
2,851912	-0,174052	57,359	-0,058105	22,450000	56,225000
2,851952	0,102796	57,409	-0,057989	22,450000	56,225000
2,851921	-0,110973	57,460	-0,058079	22,450000	56,225000
2,851957	-0,324742	57,510	-0,058168	22,450000	56,225000
2,851904	0,316565	57,560	-0,057900	22,450000	56,225000
2,851901	0,000000	57,610	-0,058032	22,450000	56,225000
2,851914	0,086442	57,660	-0,057996	22,450000	56,225000
2,851873	0,054902	57,711	-0,058009	22,450000	56,225000
2,851949	0,205592	57,761	-0,057946	22,450000	56,225000
2,851899	-0,324742	57,812	-0,058168	22,450000	56,225000
2,851907	0,252318	57,863	-0,057927	22,450000	56,225000
2,851947	-0,094619	57,914	-0,058072	22,450000	56,225000
2,851917	0,134336	57,964	-0,057976	22,450000	56,225000
2,851932	-0,285025	58,014	-0,058151	22,450000	56,225000
2,851946	-0,206760	58,064	-0,058119	22,450000	56,225000
2,851927	-0,079433	58,115	-0,058065	22,450000	56,225000
2,851900	0,181061	58,180	-0,057957	22,450000	56,225000
2,851941	0,110973	58,230	-0,057986	22,450000	56,225000
2,851948	0,102796	58,280	-0,057989	22,450000	56,225000
2,851917	0,134336	58,330	-0,057976	22,450000	56,225000
2,851922	0,142513	58,380	-0,057973	22,450000	56,225000
2,851924	-0,142513	58,430	-0,058092	22,450000	56,225000
2,851914	0,165875	58,480	-0,057963	22,450000	56,225000
2,851906	-0,008177	58,530	-0,058036	22,460000	56,225000
2,851916	0,000000	58,582	-0,058032	22,460000	56,225000
2,851936	-0,213769	58,633	-0,058122	22,460000	56,225000
2,851948	0,023363	58,683	-0,058022	22,460000	56,225000
2,851940	-0,142513	58,734	-0,058092	22,460000	56,225000
2,851924	-0,087610	58,784	-0,058069	22,460000	56,225000
2,851934	-0,167044	58,834	-0,058102	22,460000	56,225000
2,851922	-0,142513	58,884	-0,058092	22,460000	56,225000
2,851898	-0,047894	58,934	-0,058052	22,460000	56,225000
2,851909	0,015186	58,985	-0,058026	22,460000	56,225000
2,851921	-0,039717	59,035	-0,058049	22,460000	56,225000
2,851913	-0,087610	59,085	-0,058069	22,460000	56,225000
2,851911	-0,150690	59,135	-0,058095	22,460000	56,225000
2,851969	0,205592	59,186	-0,057946	22,460000	56,225000
2,851909	-0,475432	59,236	-0,058231	22,460000	56,225000
2,851922	-0,174052	59,286	-0,058105	22,460000	56,225000
2,851872	-0,213769	59,337	-0,058122	22,460000	56,225000
2,851939	-0,190406	59,387	-0,058112	22,460000	56,225000
2,851940	0,071256	59,437	-0,058002	22,460000	56,225000
2,851919	-0,119150	59,487	-0,058082	22,460000	56,225000
2,851945	-0,221946	59,537	-0,058125	22,460000	56,225000
2,851948	-0,032708	59,587	-0,058046	22,460000	56,225000
2,851947	0,197415	59,637	-0,057950	22,460000	56,225000
2,851880	-0,079433	59,687	-0,058065	22,460000	56,225000
2,851964	-0,094619	59,737	-0,058072	22,460000	56,225000
2,851910	-0,008177	59,788	-0,058036	22,460000	56,225000
2,851892	-0,245309	59,839	-0,058135	22,460000	56,225000
2,851894	-0,119150	59,890	-0,058082	22,460000	56,225000
2,851922	-0,119150	59,940	-0,058082	22,460000	56,225000
2,851901	-0,110973	59,990	-0,058079	22,460000	56,225000
2,851891	-0,039717	60,040	-0,058049	22,460000	56,225000
2,851939	-0,253486	60,090	-0,058138	22,460000	56,225000
2,851938	-0,221946	60,140	-0,058125	22,460000	56,225000
2,851895	0,126159	60,190	-0,057979	22,460000	56,225000
2,851910	-0,372636	60,240	-0,058188	22,460000	56,225000
2,851963	-0,094619	60,290	-0,058072	22,460000	56,225000
2,851940	-0,182229	60,340	-0,058108	22,460000	56,225000
2,851948	-0,063079	60,391	-0,058059	22,460000	56,225000
2,851944	0,134336	60,441	-0,057976	22,460000	56,225000
2,851908	-0,182229	60,491	-0,058108	22,460000	56,225000
2,851942	-0,127327	60,542	-0,058085	22,460000	56,265000
2,851923	-0,167044	60,592	-0,058102	22,460000	56,265000
2,851889	-0,134336	60,643	-0,058088	22,460000	56,265000
2,852022	-0,412352	60,694	-0,058205	22,460000	56,265000
2,851904	-0,008177	60,744	-0,058036	22,460000	56,265000
2,851942	-0,063079	60,794	-0,058059	22,460000	56,265000
2,851936	-0,285025	60,844	-0,058151	22,460000	56,265000
2,851875	-0,174052	60,895	-0,058105	22,460000	56,265000
2,851877	-0,008177	60,946	-0,058036	22,460000	56,265000
2,851906	-0,094619	61,010	-0,058072	22,460000	56,265000
2,851901	-0,071256	61,060	-0,058062	22,460000	56,265000
2,851911	0,054902	61,110	-0,058009	22,460000	56,265000
2,852003	-0,387821	61,160	-0,058194	22,460000	56,265000
