Quasi static measurement routine
Tip parameters (shape,radius, material...) 
13.09.2022

Piezo position[nm]	MEMS displ.[nm]	Time[ms]	Cap [pf]	Temp [°C]	Rh [%]
eoh
0,669975	-0,023141	1,060	-0,075665	22,300000	52,140000
0,672992	0,008099	1,211	-0,075652	22,300000	52,140000
0,675966	-0,134219	1,361	-0,075712	22,300000	52,140000
0,678989	0,116864	1,512	-0,075606	22,300000	52,140000
0,681976	-0,172403	1,663	-0,075728	22,300000	52,140000
0,685032	-0,086780	1,813	-0,075692	22,300000	52,140000
0,687991	0,077523	1,963	-0,075623	22,300000	52,140000
0,690988	-0,321664	2,113	-0,075791	22,300000	52,140000
0,694021	-0,062481	2,263	-0,075682	22,300000	52,140000
0,696988	-0,141162	2,414	-0,075715	22,300000	52,140000
0,700010	-0,157361	2,564	-0,075722	22,300000	52,180000
0,702989	-0,062481	2,714	-0,075682	22,300000	52,180000
0,705963	0,070581	2,864	-0,075625	22,300000	52,180000
0,708952	-0,062481	3,014	-0,075682	22,300000	52,180000
0,711993	-0,172403	3,164	-0,075728	22,300000	52,180000
0,715004	0,046283	3,315	-0,075636	22,300000	52,180000
0,717958	-0,047440	3,465	-0,075675	22,300000	52,180000
0,720972	-0,086780	3,616	-0,075692	22,300000	52,180000
0,723967	-0,070581	3,767	-0,075685	22,300000	52,180000
0,726972	-0,109921	3,917	-0,075702	22,300000	52,180000
0,729971	-0,016199	4,068	-0,075662	22,300000	52,180000
0,733046	0,164303	4,218	-0,075586	22,300000	52,180000
0,735945	0,109921	4,368	-0,075609	22,300000	52,180000
0,738970	-0,157361	4,518	-0,075722	22,300000	52,165000
0,741988	0,023141	4,668	-0,075646	22,300000	52,165000
0,744956	0,038183	4,818	-0,075639	22,300000	52,165000
0,748009	-0,126120	4,968	-0,075708	22,300000	52,165000
0,750982	-0,157361	5,118	-0,075722	22,300000	52,165000
0,753975	-0,149261	5,268	-0,075718	22,300000	52,165000
0,756995	-0,016199	5,418	-0,075662	22,300000	52,165000
0,759983	-0,180502	5,568	-0,075731	22,300000	52,165000
0,762972	-0,109921	5,718	-0,075702	22,300000	52,165000
0,765991	-0,101822	5,868	-0,075698	22,300000	52,165000
0,769001	-0,172403	6,018	-0,075728	22,300000	52,165000
0,772001	-0,078680	6,168	-0,075688	22,300000	52,165000
0,774962	0,062481	6,318	-0,075629	22,300000	52,165000
0,777955	0,062481	6,468	-0,075629	22,300000	52,165000
0,780974	-0,227942	6,619	-0,075751	22,300000	52,165000
0,783933	-0,172403	6,769	-0,075728	22,300000	52,165000
0,786983	-0,149261	6,919	-0,075718	22,300000	52,165000
0,790014	0,000000	7,069	-0,075655	22,300000	52,165000
0,792982	-0,023141	7,220	-0,075665	22,300000	52,165000
0,795972	0,085623	7,370	-0,075619	22,300000	52,165000
0,798997	-0,219842	7,520	-0,075748	22,300000	52,165000
0,801989	-0,031241	7,670	-0,075668	22,300000	52,165000
0,805020	-0,086780	7,820	-0,075692	22,300000	52,165000
0,807980	-0,094879	7,970	-0,075695	22,300000	52,165000
0,810959	-0,180502	8,121	-0,075731	22,300000	52,165000
0,813991	-0,062481	8,271	-0,075682	22,300000	52,165000
0,816950	-0,415386	8,421	-0,075831	22,300000	52,165000
0,819915	0,031241	8,571	-0,075642	22,290000	52,135000
0,823004	-0,109921	8,721	-0,075702	22,290000	52,135000
0,825985	0,054382	8,871	-0,075632	22,290000	52,135000
0,828987	-0,141162	9,022	-0,075715	22,290000	52,135000
0,831906	-0,109921	9,172	-0,075702	22,290000	52,135000
0,834938	-0,195544	9,322	-0,075738	22,290000	52,135000
0,837969	-0,259182	9,472	-0,075765	22,290000	52,135000
0,840990	-0,149261	9,622	-0,075718	22,290000	52,135000
0,843950	-0,188602	9,772	-0,075735	22,290000	52,135000
0,846973	0,093722	9,923	-0,075616	22,290000	52,135000
0,849972	-0,188602	10,074	-0,075735	22,290000	52,135000
0,852943	-0,086780	10,224	-0,075692	22,290000	52,135000
0,855959	0,023141	10,374	-0,075646	22,290000	52,135000
0,858952	-0,377203	10,524	-0,075814	22,290000	52,135000
0,861988	-0,298523	10,674	-0,075781	22,290000	52,135000
0,864931	-0,023141	10,824	-0,075665	22,290000	52,135000
0,867993	-0,290423	10,974	-0,075778	22,290000	52,135000
0,871000	-0,070581	11,124	-0,075685	22,290000	52,135000
0,873949	-0,188602	11,274	-0,075735	22,290000	52,135000
0,876945	-0,134219	11,425	-0,075712	22,290000	52,135000
0,879936	0,038183	11,575	-0,075639	22,290000	52,135000
0,882985	0,164303	11,725	-0,075586	22,290000	52,135000
0,886000	0,062481	11,875	-0,075629	22,290000	52,135000
0,888979	0,015042	12,025	-0,075649	22,290000	52,135000
0,891981	-0,141162	12,175	-0,075715	22,290000	52,135000
0,894945	0,008099	12,325	-0,075652	22,290000	52,135000
0,897979	-0,062481	12,476	-0,075682	22,290000	52,135000
0,900981	-0,039340	12,626	-0,075672	22,290000	52,160000
0,903971	0,054382	12,776	-0,075632	22,290000	52,160000
0,907036	-0,149261	12,926	-0,075718	22,290000	52,160000
0,910027	-0,180502	13,076	-0,075731	22,290000	52,160000
0,912926	0,023141	13,226	-0,075646	22,290000	52,160000
0,915995	-0,078680	13,376	-0,075688	22,290000	52,160000
0,918963	-0,118021	13,526	-0,075705	22,290000	52,160000
0,921954	-0,172403	13,676	-0,075728	22,290000	52,160000
0,924966	-0,251083	13,828	-0,075761	22,290000	52,160000
0,928031	-0,313564	13,979	-0,075788	22,290000	52,160000
0,931017	-0,165460	14,130	-0,075725	22,290000	52,160000
0,933995	-0,078680	14,280	-0,075688	22,290000	52,160000
0,936959	0,148104	14,430	-0,075593	22,290000	52,160000
0,940002	-0,227942	14,580	-0,075751	22,300000	52,165000
0,942978	-0,172403	14,730	-0,075728	22,300000	52,165000
0,945930	-0,008099	14,880	-0,075659	22,300000	52,165000
0,948922	-0,094879	15,030	-0,075695	22,300000	52,165000
0,951931	-0,094879	15,181	-0,075695	22,300000	52,165000
0,954915	-0,086780	15,331	-0,075692	22,300000	52,165000
0,957967	-0,086780	15,481	-0,075692	22,300000	52,165000
0,960973	-0,165460	15,632	-0,075725	22,300000	52,165000
0,964025	-0,149261	15,782	-0,075718	22,300000	52,165000
0,966986	0,031241	15,932	-0,075642	22,300000	52,165000
0,969952	-0,118021	16,082	-0,075705	22,300000	52,165000
0,973024	-0,188602	16,232	-0,075735	22,300000	52,165000
0,975945	-0,267282	16,383	-0,075768	22,300000	52,165000
0,978972	-0,126120	16,533	-0,075708	22,300000	52,165000
0,982011	-0,039340	16,683	-0,075672	22,300000	52,165000
0,985045	0,077523	16,834	-0,075623	22,300000	52,165000
0,987971	-0,118021	16,984	-0,075705	22,300000	52,165000
0,990989	-0,070581	17,134	-0,075685	22,300000	52,165000
0,993994	-0,149261	17,284	-0,075718	22,300000	52,165000
0,996941	-0,134219	17,435	-0,075712	22,300000	52,165000
0,999973	0,124963	17,586	-0,075603	22,300000	52,165000
1,002983	-0,305465	17,736	-0,075784	22,300000	52,165000
1,005965	-0,055539	17,886	-0,075679	22,300000	52,165000
1,009040	0,008099	18,036	-0,075652	22,300000	52,165000
1,011985	-0,165460	18,186	-0,075725	22,300000	52,165000
1,015006	-0,118021	18,336	-0,075705	22,300000	52,165000
1,018031	-0,109921	18,486	-0,075702	22,300000	52,165000
1,020980	-0,203643	18,636	-0,075741	22,300000	52,180000
1,023960	-0,344805	18,786	-0,075801	22,300000	52,180000
1,027032	-0,384145	18,936	-0,075817	22,300000	52,180000
1,030016	-0,172403	19,086	-0,075728	22,300000	52,180000
1,032973	-0,180502	19,236	-0,075731	22,300000	52,180000
1,035978	-0,157361	19,387	-0,075722	22,300000	52,180000
1,038980	-0,031241	19,537	-0,075668	22,300000	52,180000
1,041946	-0,118021	19,687	-0,075705	22,300000	52,180000
1,044990	-0,078680	19,837	-0,075688	22,300000	52,180000
1,047969	-0,062481	19,988	-0,075682	22,300000	52,180000
1,051024	-0,195544	20,138	-0,075738	22,300000	52,180000
1,053960	-0,062481	20,288	-0,075682	22,300000	52,180000
1,056964	-0,086780	20,438	-0,075692	22,300000	52,180000
1,059960	0,274224	20,588	-0,075540	22,300000	52,180000
1,062938	-0,337863	20,738	-0,075798	22,300000	52,180000
1,065976	-0,086780	20,888	-0,075692	22,300000	52,180000
1,069002	-0,242984	21,038	-0,075758	22,300000	52,180000
1,071944	-0,211743	21,188	-0,075745	22,300000	52,180000
1,074929	-0,259182	21,338	-0,075765	22,300000	52,180000
1,077985	-0,329763	21,488	-0,075794	22,300000	52,180000
1,080948	-0,094879	21,638	-0,075695	22,300000	52,180000
1,083983	-0,165460	21,788	-0,075725	22,300000	52,180000
1,086928	-0,086780	21,938	-0,075692	22,300000	52,180000
1,090007	0,109921	22,088	-0,075609	22,300000	52,180000
1,093013	-0,031241	22,238	-0,075668	22,300000	52,180000
1,095901	0,266125	22,388	-0,075543	22,300000	52,180000
1,099048	-0,203643	22,538	-0,075741	22,300000	52,155000
1,102001	-0,062481	22,688	-0,075682	22,300000	52,155000
1,105012	-0,267282	22,838	-0,075768	22,300000	52,155000
1,107962	-0,172403	22,988	-0,075728	22,300000	52,155000
1,110947	-0,298523	23,138	-0,075781	22,300000	52,155000
1,114017	-0,134219	23,289	-0,075712	22,300000	52,155000
1,116988	-0,062481	23,439	-0,075682	22,300000	52,155000
1,120011	-0,141162	23,590	-0,075715	22,300000	52,155000
1,122961	-0,126120	23,741	-0,075708	22,300000	52,155000
1,125994	-0,141162	23,891	-0,075715	22,300000	52,155000
1,128988	-0,361004	24,041	-0,075808	22,300000	52,155000
1,131918	-0,134219	24,192	-0,075712	22,300000	52,155000
1,134994	-0,165460	24,343	-0,075725	22,300000	52,155000
1,137966	-0,118021	24,493	-0,075705	22,300000	52,155000
1,141001	-0,234884	24,643	-0,075754	22,300000	52,155000
1,144030	0,062481	24,793	-0,075629	22,300000	52,155000
1,146972	-0,062481	24,943	-0,075682	22,300000	52,155000
1,149899	-0,180502	25,093	-0,075731	22,300000	52,155000
1,152982	-0,016199	25,243	-0,075662	22,300000	52,155000
1,155936	-0,446627	25,393	-0,075844	22,300000	52,155000
1,158977	-0,172403	25,543	-0,075728	22,300000	52,155000
1,161933	-0,282324	25,693	-0,075774	22,300000	52,155000
1,164964	-0,219842	25,843	-0,075748	22,300000	52,155000
1,167996	-0,172403	25,993	-0,075728	22,300000	52,155000
1,170995	-0,274224	26,143	-0,075771	22,300000	52,155000
1,173971	-0,126120	26,293	-0,075708	22,300000	52,155000
1,176991	-0,180502	26,443	-0,075731	22,300000	52,155000
1,179967	-0,321664	26,593	-0,075791	22,300000	52,195000
1,182897	-0,172403	26,743	-0,075728	22,300000	52,195000
1,185968	-0,078680	26,893	-0,075688	22,300000	52,195000
1,188933	-0,157361	27,043	-0,075722	22,300000	52,195000
1,191967	0,000000	27,193	-0,075655	22,300000	52,195000
1,194961	-0,047440	27,343	-0,075675	22,300000	52,195000
1,197995	0,015042	27,493	-0,075649	22,300000	52,195000
1,200990	-0,039340	27,643	-0,075672	22,300000	52,195000
1,204026	-0,305465	27,793	-0,075784	22,300000	52,195000
1,206931	-0,321664	27,944	-0,075791	22,300000	52,195000
1,209940	0,023141	28,095	-0,075646	22,300000	52,195000
1,212980	-0,172403	28,245	-0,075728	22,300000	52,195000
1,215961	-0,165460	28,396	-0,075725	22,300000	52,195000
1,219019	0,085623	28,546	-0,075619	22,300000	52,195000
1,221922	-0,242984	28,696	-0,075758	22,300000	52,195000
1,225008	-0,149261	28,846	-0,075718	22,300000	52,195000
1,227960	-0,180502	28,996	-0,075731	22,300000	52,195000
1,231014	-0,195544	29,146	-0,075738	22,300000	52,195000
1,233935	0,046283	29,296	-0,075636	22,300000	52,195000
1,236944	-0,031241	29,446	-0,075668	22,300000	52,195000
1,239988	-0,118021	29,596	-0,075705	22,300000	52,195000
1,242926	-0,118021	29,747	-0,075705	22,300000	52,195000
1,245957	-0,242984	29,897	-0,075758	22,300000	52,195000
1,248977	-0,039340	30,047	-0,075672	22,300000	52,195000
1,251963	-0,109921	30,198	-0,075702	22,300000	52,195000
1,254927	-0,101822	30,348	-0,075698	22,300000	52,195000
1,257975	-0,109921	30,498	-0,075702	22,300000	52,195000
1,260998	-0,101822	30,650	-0,075698	22,300000	52,180000
1,263958	-0,259182	30,800	-0,075765	22,300000	52,180000
1,267002	-0,149261	30,950	-0,075718	22,300000	52,180000
1,269941	-0,141162	31,101	-0,075715	22,300000	52,180000
1,272972	-0,227942	31,252	-0,075751	22,300000	52,180000
1,276019	-0,109921	31,402	-0,075702	22,300000	52,180000
1,278955	-0,134219	31,552	-0,075712	22,300000	52,180000
1,281968	-0,251083	31,702	-0,075761	22,300000	52,180000
1,284972	-0,274224	31,852	-0,075771	22,300000	52,180000
1,288024	-0,039340	32,002	-0,075672	22,300000	52,180000
1,290972	-0,016199	32,153	-0,075662	22,300000	52,180000
1,293926	-0,172403	32,303	-0,075728	22,300000	52,180000
1,296971	-0,587789	32,453	-0,075903	22,300000	52,180000
1,299984	0,124963	32,603	-0,075603	22,300000	52,180000
1,302993	-0,234884	32,753	-0,075754	22,300000	52,180000
1,306005	0,008099	32,903	-0,075652	22,300000	52,180000
1,308973	-0,118021	33,053	-0,075705	22,300000	52,180000
1,311934	-0,203643	33,203	-0,075741	22,300000	52,180000
1,314920	-0,047440	33,353	-0,075675	22,300000	52,180000
1,317963	-0,446627	33,504	-0,075844	22,300000	52,180000
1,320970	0,085623	33,655	-0,075619	22,300000	52,180000
1,323990	-0,055539	33,806	-0,075679	22,300000	52,180000
1,327004	-0,188602	33,956	-0,075735	22,300000	52,180000
1,329966	-0,361004	34,106	-0,075808	22,300000	52,180000
1,332925	-0,188602	34,256	-0,075735	22,300000	52,180000
1,335959	-0,321664	34,406	-0,075791	22,300000	52,180000
1,338972	-0,251083	34,556	-0,075761	22,300000	52,165000
1,341941	-0,234884	34,706	-0,075754	22,300000	52,165000
1,344949	-0,180502	34,856	-0,075731	22,300000	52,165000
1,347926	-0,078680	35,006	-0,075688	22,300000	52,165000
1,350969	-0,195544	35,157	-0,075738	22,300000	52,165000
1,353928	0,077523	35,308	-0,075623	22,300000	52,165000
1,356987	-0,392245	35,459	-0,075821	22,300000	52,165000
1,360008	0,008099	35,610	-0,075652	22,300000	52,165000
1,363015	0,000000	35,760	-0,075655	22,300000	52,165000
1,365992	-0,134219	35,910	-0,075712	22,300000	52,165000
1,368987	-0,118021	36,060	-0,075705	22,300000	52,165000
1,371914	0,070581	36,210	-0,075625	22,300000	52,165000
1,374978	-0,219842	36,361	-0,075748	22,300000	52,165000
1,377936	-0,008099	36,512	-0,075659	22,300000	52,165000
1,380943	-0,259182	36,662	-0,075765	22,300000	52,165000
1,384014	-0,400344	36,812	-0,075824	22,300000	52,165000
1,386976	-0,211743	36,962	-0,075745	22,300000	52,165000
1,389964	-0,267282	37,112	-0,075768	22,300000	52,165000
1,392968	-0,008099	37,262	-0,075659	22,300000	52,165000
1,395954	-0,329763	37,412	-0,075794	22,300000	52,165000
1,398977	-0,423486	37,562	-0,075834	22,300000	52,165000
1,401962	0,015042	37,713	-0,075649	22,300000	52,165000
1,404936	-0,118021	37,863	-0,075705	22,300000	52,165000
1,407969	-0,126120	38,013	-0,075708	22,300000	52,165000
1,410991	-0,251083	38,163	-0,075761	22,300000	52,165000
1,413941	-0,157361	38,313	-0,075722	22,300000	52,165000
1,416936	-0,180502	38,463	-0,075731	22,300000	52,165000
1,419971	-0,078680	38,614	-0,075688	22,290000	52,200000
1,422948	-0,126120	38,764	-0,075708	22,290000	52,200000
1,425984	-0,195544	38,914	-0,075738	22,290000	52,200000
1,428952	-0,134219	39,064	-0,075712	22,290000	52,200000
1,431955	0,046283	39,215	-0,075636	22,290000	52,200000
1,434976	-0,259182	39,366	-0,075765	22,290000	52,200000
1,438003	-0,188602	39,516	-0,075735	22,290000	52,200000
1,440997	-0,157361	39,666	-0,075722	22,290000	52,200000
1,444028	-0,274224	39,817	-0,075771	22,290000	52,200000
1,447003	-0,149261	39,967	-0,075718	22,290000	52,200000
1,449889	-0,242984	40,117	-0,075758	22,290000	52,200000
1,452994	-0,211743	40,267	-0,075745	22,290000	52,200000
1,455913	-0,109921	40,418	-0,075702	22,290000	52,200000
1,458950	-0,134219	40,569	-0,075712	22,300000	52,165000
1,461977	-0,352905	40,720	-0,075804	22,300000	52,165000
1,464944	-0,172403	40,871	-0,075728	22,300000	52,165000
1,467966	-0,219842	41,021	-0,075748	22,300000	52,165000
1,470944	-0,219842	41,171	-0,075748	22,300000	52,165000
1,473920	-0,188602	41,321	-0,075735	22,300000	52,165000
1,476919	-0,195544	41,471	-0,075738	22,300000	52,165000
1,479963	-0,126120	41,621	-0,075708	22,300000	52,165000
1,482953	-0,251083	41,771	-0,075761	22,300000	52,165000
1,485979	-0,070581	41,921	-0,075685	22,300000	52,165000
1,488962	-0,329763	42,072	-0,075794	22,300000	52,165000
1,491949	0,015042	42,222	-0,075649	22,300000	52,165000
1,495023	-0,188602	42,372	-0,075735	22,300000	52,165000
1,497989	-0,313564	42,522	-0,075788	22,300000	52,165000
1,500971	-0,321664	42,672	-0,075791	22,300000	52,165000
1,503953	-0,274224	42,822	-0,075771	22,300000	52,165000
1,506962	-0,352905	42,972	-0,075804	22,300000	52,165000
1,509975	-0,321664	43,122	-0,075791	22,300000	52,165000
1,512985	-0,259182	43,273	-0,075765	22,300000	52,165000
1,515992	-0,321664	43,423	-0,075791	22,300000	52,165000
1,519019	-0,149261	43,573	-0,075718	22,300000	52,165000
1,522034	-0,470925	43,723	-0,075854	22,300000	52,165000
1,524987	-0,290423	43,873	-0,075778	22,300000	52,165000
1,527978	-0,251083	44,023	-0,075761	22,300000	52,165000
1,530884	-0,438527	44,174	-0,075840	22,300000	52,165000
1,534032	-0,141162	44,324	-0,075715	22,300000	52,165000
1,536953	-0,227942	44,474	-0,075751	22,300000	52,165000
1,539948	-0,157361	44,624	-0,075722	22,300000	52,155000
1,542949	-0,195544	44,774	-0,075738	22,300000	52,155000
1,545993	-0,305465	44,924	-0,075784	22,300000	52,155000
1,548948	-0,267282	45,074	-0,075768	22,300000	52,155000
1,551953	-0,259182	45,225	-0,075765	22,300000	52,155000
1,554977	-0,118021	45,375	-0,075705	22,300000	52,155000
1,558013	-0,101822	45,526	-0,075698	22,300000	52,155000
1,560921	-0,431585	45,676	-0,075837	22,300000	52,155000
1,563971	-0,039340	45,826	-0,075672	22,300000	52,155000
1,566936	-0,219842	45,976	-0,075748	22,300000	52,155000
1,569997	-0,337863	46,126	-0,075798	22,300000	52,155000
1,572971	-0,062481	46,276	-0,075682	22,300000	52,155000
1,575944	-0,070581	46,426	-0,075685	22,300000	52,155000
1,578983	-0,227942	46,576	-0,075751	22,300000	52,155000
1,581962	-0,259182	46,726	-0,075765	22,300000	52,155000
1,584963	-0,321664	46,877	-0,075791	22,300000	52,155000
1,587973	-0,134219	47,028	-0,075712	22,300000	52,155000
1,590924	-0,188602	47,179	-0,075735	22,300000	52,155000
1,593941	-0,344805	47,331	-0,075801	22,300000	52,155000
1,597038	-0,227942	47,481	-0,075751	22,300000	52,155000
1,599988	-0,109921	47,632	-0,075702	22,300000	52,155000
1,602949	-0,118021	47,782	-0,075705	22,300000	52,155000
1,605962	-0,016199	47,932	-0,075662	22,300000	52,155000
1,608933	0,101822	48,082	-0,075612	22,300000	52,155000
1,611960	-0,016199	48,232	-0,075662	22,300000	52,155000
1,614973	-0,337863	48,382	-0,075798	22,300000	52,155000
1,617935	-0,227942	48,532	-0,075751	22,300000	52,140000
1,620933	-0,259182	48,682	-0,075765	22,300000	52,140000
1,623981	-0,031241	48,832	-0,075668	22,300000	52,140000
1,626928	-0,415386	48,982	-0,075831	22,300000	52,140000
1,629927	-0,094879	49,132	-0,075695	22,300000	52,140000
1,632897	-0,337863	49,283	-0,075798	22,300000	52,140000
1,635959	-0,227942	49,433	-0,075751	22,300000	52,140000
1,638983	-0,267282	49,583	-0,075768	22,300000	52,140000
1,641908	0,038183	49,733	-0,075639	22,300000	52,140000
1,644974	-0,384145	49,883	-0,075817	22,300000	52,140000
1,647931	-0,149261	50,033	-0,075718	22,300000	52,140000
1,650953	-0,203643	50,183	-0,075741	22,300000	52,140000
1,653904	-0,298523	50,333	-0,075781	22,300000	52,140000
1,656967	-0,361004	50,483	-0,075808	22,300000	52,140000
1,659974	-0,267282	50,633	-0,075768	22,290000	52,150000
1,662960	-0,180502	50,783	-0,075731	22,290000	52,150000
1,666014	-0,242984	50,933	-0,075758	22,290000	52,150000
1,668929	-0,023141	51,083	-0,075665	22,290000	52,150000
1,671957	-0,274224	51,233	-0,075771	22,290000	52,150000
1,674932	-0,377203	51,383	-0,075814	22,290000	52,150000
1,677974	-0,337863	51,533	-0,075798	22,290000	52,150000
1,680966	-0,494067	51,683	-0,075864	22,290000	52,150000
1,683933	-0,462826	51,833	-0,075851	22,290000	52,150000
1,686927	-0,267282	51,983	-0,075768	22,290000	52,150000
1,689939	-0,234884	52,133	-0,075754	22,290000	52,150000
1,692962	-0,298523	52,283	-0,075781	22,290000	52,150000
1,695947	-5,298199	52,433	-0,077891	22,290000	52,150000
1,698986	-5,353738	52,583	-0,077915	22,290000	52,150000
1,701921	-5,314398	52,734	-0,077898	22,290000	52,150000
1,704936	-5,667302	52,884	-0,078047	22,290000	52,150000
1,707988	-5,870946	53,034	-0,078133	22,290000	52,150000
1,710945	-6,059547	53,184	-0,078212	22,290000	52,150000
1,713915	-6,371955	53,334	-0,078344	22,290000	52,150000
1,716899	-6,286332	53,485	-0,078308	22,290000	52,150000
1,720010	-6,726016	53,636	-0,078494	22,290000	52,150000
1,722926	-7,038424	53,786	-0,078625	22,290000	52,150000
1,725916	-7,148345	53,936	-0,078672	22,290000	52,150000
1,728956	-7,556789	54,086	-0,078844	22,290000	52,150000
1,731926	-7,579930	54,236	-0,078854	22,290000	52,150000
1,734930	-7,791673	54,386	-0,078943	22,290000	52,150000
1,737925	-8,080939	54,536	-0,079065	22,300000	52,180000
1,741027	-8,504425	54,686	-0,079244	22,300000	52,180000
1,743927	-8,802947	54,836	-0,079370	22,300000	52,180000
1,746984	-9,594379	54,986	-0,079704	22,300000	52,180000
1,749955	-9,617521	55,136	-0,079714	22,300000	52,180000
1,752919	-10,009766	55,287	-0,079879	22,300000	52,180000
1,755949	-10,535073	55,438	-0,080101	22,300000	52,180000
1,758900	-10,926161	55,588	-0,080266	22,300000	52,180000
1,761945	-11,106663	55,738	-0,080342	22,300000	52,180000
1,764921	-11,647012	55,888	-0,080570	22,300000	52,180000
1,767941	-11,733792	56,038	-0,080607	22,300000	52,180000
1,770929	-11,686352	56,188	-0,080587	22,300000	52,180000
1,773940	-11,733792	56,338	-0,080607	22,300000	52,180000
1,776957	-11,999917	56,488	-0,080719	22,300000	52,180000
1,779927	-11,741891	56,638	-0,080610	22,300000	52,140000
1,782923	-11,906194	56,789	-0,080680	22,300000	52,140000
1,785890	-11,765033	56,939	-0,080620	22,300000	52,140000
1,788887	-12,227858	57,090	-0,080815	22,300000	52,140000
1,791928	-12,031157	57,240	-0,080732	22,300000	52,140000
1,794920	-12,282240	57,390	-0,080838	22,300000	52,140000
1,798007	-13,035489	57,541	-0,081156	22,300000	52,140000
1,800998	-202,949126	57,691	-0,161300	22,300000	52,140000
1,803952	-212,519207	57,841	-0,165338	22,300000	52,140000
1,806947	-213,679743	57,992	-0,165828	22,300000	52,140000
1,809977	-217,017874	58,142	-0,167237	22,300000	52,140000
1,812905	-216,766791	58,293	-0,167131	22,300000	52,140000
1,815980	-216,712409	58,444	-0,167108	22,300000	52,140000
1,818922	-216,172060	58,594	-0,166880	22,300000	52,140000
1,821923	-213,271299	58,744	-0,165656	22,300000	52,140000
1,824999	-212,714751	58,894	-0,165421	22,300000	52,140000
1,827954	-210,920144	59,044	-0,164664	22,300000	52,140000
1,830900	-210,411036	59,194	-0,164449	22,300000	52,140000
1,833898	-208,192943	59,345	-0,163513	22,300000	52,140000
1,836954	-208,968176	59,495	-0,163840	22,300000	52,140000
1,839967	-207,400354	59,645	-0,163178	22,300000	52,140000
1,842895	-204,673152	59,795	-0,162027	22,300000	52,140000
1,845930	-204,328347	59,945	-0,161882	22,300000	52,140000
1,848969	-201,341963	60,095	-0,160622	22,300000	52,140000
1,851921	-201,240142	60,245	-0,160579	22,300000	52,140000
1,854876	-199,327514	60,396	-0,159771	22,300000	52,140000
1,857939	-197,869613	60,546	-0,159156	22,310000	52,155000
1,860944	-196,247408	60,696	-0,158472	22,310000	52,155000
1,863922	-192,147928	60,846	-0,156742	22,310000	52,155000
1,866871	-193,009941	60,997	-0,157105	22,310000	52,155000
1,869895	-188,801698	61,148	-0,155330	22,310000	52,155000
1,872965	-189,506350	61,298	-0,155627	22,310000	52,155000
1,875923	-185,642911	61,448	-0,153997	22,310000	52,155000
1,878922	-185,556132	61,598	-0,153960	22,310000	52,155000
1,881975	-184,271790	61,748	-0,153418	22,310000	52,155000
1,884916	-182,735208	61,898	-0,152770	22,310000	52,155000
1,887964	-181,080606	62,048	-0,152071	22,310000	52,155000
1,890983	-178,862513	62,198	-0,151135	22,310000	52,155000
1,893912	-177,225267	62,348	-0,150444	22,310000	52,155000
1,896926	-175,414461	62,498	-0,149680	22,310000	52,155000
1,899941	-171,981450	62,648	-0,148231	22,300000	52,180000
1,902887	-171,612346	62,798	-0,148076	22,300000	52,180000
1,905974	-168,509099	62,949	-0,146766	22,300000	52,180000
1,908884	-168,351738	63,100	-0,146700	22,300000	52,180000
1,911941	-164,401520	63,250	-0,145033	22,300000	52,180000
1,914919	-164,887487	63,400	-0,145238	22,300000	52,180000
1,917902	-163,053540	63,550	-0,144464	22,300000	52,180000
1,920945	-158,914720	63,700	-0,142717	22,300000	52,180000
1,923932	-158,390569	63,851	-0,142496	22,300000	52,180000
1,926940	-155,387987	64,001	-0,141229	22,300000	52,180000
1,929952	-154,016865	64,152	-0,140650	22,300000	52,180000
1,932885	-153,921986	64,302	-0,140610	22,300000	52,180000
1,935914	-150,700718	64,452	-0,139251	22,300000	52,180000
1,938886	-150,137228	64,602	-0,139013	22,300000	52,140000
1,941912	-148,380804	64,752	-0,138272	22,300000	52,140000
1,944918	-144,320664	64,902	-0,136559	22,300000	52,140000
1,947911	-144,399345	65,052	-0,136592	22,300000	52,140000
1,950929	-142,941443	65,202	-0,135977	22,300000	52,140000
1,954001	-139,555872	65,352	-0,134548	22,300000	52,140000
1,956922	-139,437852	65,502	-0,134498	22,300000	52,140000
1,959893	-135,950459	65,653	-0,133026	22,300000	52,140000
1,962910	-135,510775	65,803	-0,132841	22,300000	52,140000
1,965923	-132,258266	65,953	-0,131468	22,300000	52,140000
1,968895	-130,432418	66,103	-0,130698	22,300000	52,140000
1,971860	-129,695368	66,253	-0,130387	22,300000	52,140000
1,974864	-125,681511	66,403	-0,128693	22,300000	52,140000
1,977946	-125,032398	66,553	-0,128419	22,300000	52,140000
1,980887	-124,318489	66,704	-0,128118	22,300000	52,140000
1,983876	-121,919894	66,854	-0,127105	22,300000	52,140000
1,986951	-120,171570	67,004	-0,126368	22,300000	52,140000
1,989901	-118,017115	67,154	-0,125458	22,300000	52,140000
1,992918	-115,053873	67,305	-0,124208	22,300000	52,140000
1,995876	-114,466084	67,455	-0,123960	22,300000	52,140000
1,998858	-110,657028	67,606	-0,122353	22,300000	52,140000
2,001889	-110,594546	67,756	-0,122326	22,300000	52,140000
2,004892	-106,557548	67,906	-0,120623	22,300000	52,140000
2,007864	-107,043515	68,056	-0,120828	22,300000	52,140000
2,010892	-103,171977	68,206	-0,119194	22,300000	52,140000
2,013907	-103,249500	68,356	-0,119227	22,300000	52,140000
2,016914	-101,149428	68,506	-0,118340	22,300000	52,140000
2,019983	-99,346721	68,657	-0,117580	22,310000	52,195000
2,022966	-96,524641	68,807	-0,116389	22,310000	52,195000
2,025922	-93,405195	68,957	-0,115072	22,310000	52,195000
2,028997	-92,723684	69,108	-0,114785	22,310000	52,195000
2,031895	-89,196951	69,258	-0,113296	22,310000	52,195000
2,034915	-88,154436	69,408	-0,112856	22,310000	52,195000
2,037903	-87,448626	69,559	-0,112559	22,310000	52,195000
2,040921	-86,069405	69,709	-0,111977	22,310000	52,195000
2,043825	-84,422902	69,859	-0,111282	22,310000	52,195000
2,046951	-80,755008	70,009	-0,109734	22,310000	52,195000
2,049895	-80,300281	70,160	-0,109542	22,310000	52,195000
2,052876	-77,220176	70,310	-0,108242	22,310000	52,195000
2,055928	-76,396346	70,460	-0,107895	22,310000	52,195000
2,058906	-74,256933	70,610	-0,106992	22,300000	52,195000
2,061898	-70,244233	70,760	-0,105298	22,300000	52,195000
2,064916	-68,339705	70,910	-0,104495	22,300000	52,195000
2,067850	-66,262774	71,060	-0,103618	22,300000	52,195000
2,070941	-66,607579	71,210	-0,103764	22,300000	52,195000
2,073927	-64,601229	71,360	-0,102917	22,300000	52,195000
2,076899	-61,841630	71,510	-0,101752	22,300000	52,195000
2,079920	-60,690351	71,660	-0,101267	22,300000	52,195000
2,082888	-57,953893	71,810	-0,100112	22,300000	52,195000
2,085942	-56,841954	71,962	-0,099643	22,300000	52,195000
2,088875	-54,803206	72,112	-0,098782	22,300000	52,195000
2,091909	-52,969259	72,262	-0,098008	22,300000	52,195000
2,094972	-48,564314	72,413	-0,096149	22,300000	52,195000
2,097883	-49,027140	72,563	-0,096345	22,300000	52,195000
2,100944	-44,724017	72,713	-0,094529	22,300000	52,195000
2,103934	-45,162544	72,863	-0,094714	22,300000	52,195000
2,106847	-40,946201	73,014	-0,092935	22,300000	52,195000
2,109903	-39,041673	73,164	-0,092131	22,300000	52,195000
2,112932	-37,426411	73,315	-0,091449	22,300000	52,195000
2,115896	-35,310140	73,466	-0,090556	22,300000	52,195000
2,118924	-33,021466	73,616	-0,089590	22,300000	52,195000
2,121931	-31,000074	73,766	-0,088737	22,300000	52,195000
2,124963	-30,928336	73,916	-0,088707	22,300000	52,195000
2,127894	-29,071247	74,066	-0,087923	22,300000	52,195000
2,130872	-27,339122	74,217	-0,087192	22,300000	52,195000
2,133967	-24,140995	74,368	-0,085843	22,300000	52,195000
2,136933	-23,122778	74,518	-0,085413	22,300000	52,155000
2,139881	-20,057714	74,668	-0,084120	22,300000	52,155000
2,142922	-17,878962	74,818	-0,083200	22,300000	52,155000
2,145912	-16,334281	74,968	-0,082548	22,300000	52,155000
2,148915	-15,394744	75,118	-0,082152	22,300000	52,155000
2,151910	-13,505258	75,268	-0,081354	22,300000	52,155000
2,154935	-11,404028	75,419	-0,080468	22,300000	52,155000
2,157992	-8,747408	75,569	-0,079347	22,300000	52,155000
2,160864	-5,393078	75,720	-0,077931	22,300000	52,155000
2,163958	-5,408120	75,870	-0,077938	22,300000	52,155000
2,166954	-0,846971	76,020	-0,076013	22,300000	52,155000
2,169892	-1,231117	76,170	-0,076175	22,300000	52,155000
2,172850	0,627129	76,320	-0,075391	22,300000	52,155000
2,175873	2,641578	76,470	-0,074541	22,300000	52,155000
2,178912	6,262033	76,621	-0,073013	22,300000	52,195000
2,181940	6,756100	76,771	-0,072804	22,300000	52,195000
2,184910	8,558807	76,921	-0,072043	22,300000	52,195000
2,187862	13,018134	77,072	-0,070162	22,300000	52,195000
2,190902	13,379138	77,223	-0,070009	22,300000	52,195000
2,193936	17,007692	77,373	-0,068478	22,300000	52,195000
2,196946	17,196294	77,523	-0,068398	22,300000	52,195000
2,199870	18,772216	77,673	-0,067733	22,300000	52,195000
2,202945	22,423911	77,823	-0,066192	22,300000	52,195000
2,205878	22,659953	77,973	-0,066093	22,300000	52,195000
2,208921	26,147345	78,123	-0,064621	22,300000	52,195000
2,211904	26,805715	78,273	-0,064343	22,300000	52,195000
2,214886	29,416053	78,423	-0,063242	22,300000	52,195000
2,217895	33,146429	78,574	-0,061667	22,300000	52,180000
2,220928	34,110264	78,724	-0,061261	22,300000	52,180000
2,223872	36,979784	78,874	-0,060050	22,300000	52,180000
2,226907	37,104747	79,024	-0,059997	22,300000	52,180000
2,229877	38,687611	79,174	-0,059329	22,300000	52,180000
2,232933	41,831356	79,324	-0,058002	22,300000	52,180000
2,235868	44,699719	79,475	-0,056792	22,300000	52,180000
2,238863	46,290682	79,625	-0,056121	22,300000	52,180000
2,241907	47,090214	79,775	-0,055783	22,300000	52,180000
2,244938	49,904195	79,925	-0,054596	22,300000	52,180000
2,247940	53,455226	80,075	-0,053097	22,300000	52,180000
2,250874	53,862513	80,225	-0,052925	22,300000	52,180000
2,253928	57,295524	80,375	-0,051477	22,300000	52,180000
2,256895	56,801457	80,525	-0,051685	22,300000	52,180000
2,259940	59,082031	80,675	-0,050723	22,300000	52,180000
2,262939	61,723610	80,826	-0,049608	22,300000	52,180000
2,265934	63,165312	80,977	-0,049000	22,300000	52,180000
2,268898	65,548865	81,127	-0,047994	22,300000	52,180000
2,271930	66,881804	81,277	-0,047431	22,300000	52,180000
2,274949	69,366021	81,427	-0,046383	22,300000	52,180000
2,277997	73,559223	81,578	-0,044613	22,300000	52,180000
2,280917	73,119539	81,728	-0,044799	22,300000	52,180000
2,283885	77,493243	81,878	-0,042953	22,300000	52,180000
2,286901	77,509442	82,028	-0,042946	22,300000	52,180000
2,289938	80,879971	82,179	-0,041524	22,300000	52,180000
2,292958	81,349739	82,329	-0,041326	22,300000	52,180000
2,295893	83,442869	82,480	-0,040442	22,300000	52,180000
2,298882	87,824672	82,630	-0,038593	22,290000	52,160000
2,301908	88,466843	82,780	-0,038322	22,290000	52,160000
2,304928	89,407537	82,930	-0,037925	22,290000	52,160000
2,307899	91,578190	83,080	-0,037009	22,290000	52,160000
2,310917	93,584540	83,231	-0,036163	22,290000	52,160000
2,313907	95,748251	83,382	-0,035250	22,290000	52,160000
2,316928	99,926411	83,532	-0,033486	22,290000	52,160000
2,319859	99,980793	83,682	-0,033463	22,290000	52,160000
2,322911	104,252675	83,832	-0,031661	22,290000	52,160000
2,325943	104,612522	83,982	-0,031509	22,290000	52,160000
2,328949	105,521975	84,133	-0,031125	22,290000	52,160000
2,331903	108,500259	84,283	-0,029868	22,290000	52,160000
2,334949	109,683936	84,433	-0,029369	22,290000	52,160000
2,337875	112,937602	84,583	-0,027996	22,290000	52,160000
2,340903	113,720935	84,734	-0,027665	22,290000	52,160000
2,343844	116,095231	84,884	-0,026663	22,290000	52,160000
2,346863	119,991067	85,035	-0,025019	22,290000	52,160000
2,349924	119,928586	85,185	-0,025045	22,290000	52,160000
2,352911	124,356672	85,335	-0,023177	22,290000	52,160000
2,355957	124,223610	85,485	-0,023233	22,290000	52,160000
2,358907	126,136237	85,635	-0,022426	22,290000	52,160000
2,361914	128,142587	85,786	-0,021579	22,290000	52,160000
2,364915	130,181335	85,936	-0,020719	22,290000	52,160000
2,367898	134,460160	86,086	-0,018913	22,290000	52,160000
2,370925	135,056048	86,236	-0,018662	22,290000	52,160000
2,373916	135,949302	86,386	-0,018285	22,290000	52,160000
2,376929	140,503508	86,536	-0,016363	22,300000	52,165000
2,379933	140,331106	86,686	-0,016436	22,300000	52,165000
2,382894	144,680511	86,836	-0,014600	22,300000	52,165000
2,385890	144,030241	86,986	-0,014875	22,300000	52,165000
2,388882	146,553799	87,136	-0,013810	22,300000	52,165000
2,391931	148,262783	87,286	-0,013088	22,300000	52,165000
2,394937	150,347814	87,436	-0,012208	22,300000	52,165000
2,397919	152,378462	87,587	-0,011352	22,300000	52,165000
2,400896	154,360514	87,738	-0,010515	22,300000	52,165000
2,403880	156,123880	87,888	-0,009771	22,300000	52,165000
2,406893	159,619372	88,038	-0,008296	22,300000	52,165000
2,409927	162,605756	88,188	-0,007036	22,300000	52,165000
2,412947	163,390245	88,338	-0,006705	22,300000	52,165000
2,415967	164,636404	88,488	-0,006179	22,300000	52,165000
2,418910	166,439111	88,638	-0,005418	22,300000	52,205000
2,421888	168,453560	88,788	-0,004568	22,300000	52,205000
2,424952	172,897845	88,938	-0,002692	22,300000	52,205000
2,427909	173,163970	89,088	-0,002580	22,300000	52,205000
2,430857	175,884229	89,238	-0,001432	22,300000	52,205000
2,433970	176,715001	89,388	-0,001082	22,300000	52,205000
2,436898	179,458401	89,539	0,000076	22,300000	52,205000
2,439959	180,735801	89,689	0,000615	22,300000	52,205000
2,442944	183,494242	89,840	0,001779	22,300000	52,205000
2,445875	184,607339	89,990	0,002249	22,300000	52,205000
2,448957	186,684269	90,140	0,003125	22,300000	52,205000
2,451915	188,604997	90,290	0,003936	22,300000	52,205000
2,454957	190,611347	90,440	0,004783	22,300000	52,205000
2,457886	195,157453	90,590	0,006701	22,300000	52,180000
2,460929	194,765208	90,741	0,006536	22,300000	52,180000
2,463947	199,350655	90,891	0,008471	22,300000	52,180000
2,466859	198,770966	91,041	0,008226	22,300000	52,180000
2,469940	203,042848	91,192	0,010029	22,300000	52,180000
2,472854	203,057890	91,342	0,010035	22,300000	52,180000
2,475858	204,711336	91,493	0,010733	22,300000	52,180000
2,478919	207,063648	91,643	0,011726	22,300000	52,180000
2,481960	209,391662	91,793	0,012708	22,300000	52,180000
2,484911	211,163128	91,943	0,013456	22,300000	52,180000
2,487931	214,399437	92,093	0,014821	22,300000	52,180000
2,490938	215,230210	92,243	0,015172	22,300000	52,180000
2,493892	219,040423	92,394	0,016780	22,300000	52,180000
2,496932	220,214844	92,544	0,017275	22,300000	52,180000
2,499880	221,218019	92,694	0,017699	22,300000	52,180000
2,502881	225,788424	92,844	0,019627	22,300000	52,180000
2,505968	225,740984	92,995	0,019607	22,300000	52,180000
2,508916	229,628721	93,145	0,021248	22,300000	52,180000
2,511934	230,162128	93,295	0,021473	22,300000	52,180000
2,514994	233,688861	93,445	0,022961	22,300000	52,180000
2,517900	233,430835	93,595	0,022853	22,300000	52,180000
2,520826	237,655278	93,745	0,024635	22,300000	52,180000
2,523899	238,517291	93,895	0,024999	22,300000	52,180000
2,526900	239,026400	94,046	0,025214	22,300000	52,180000
2,529894	242,334447	94,196	0,026610	22,300000	52,180000
2,532905	243,776150	94,346	0,027218	22,300000	52,180000
2,535933	247,852488	94,497	0,028938	22,300000	52,180000
2,538907	247,475285	94,647	0,028779	22,300000	52,180000
2,541934	249,937519	94,798	0,029818	22,300000	52,180000
2,544920	253,981459	94,948	0,031525	22,300000	52,180000
2,547900	253,809057	95,098	0,031452	22,300000	52,180000
2,550875	255,266958	95,248	0,032067	22,300000	52,180000
2,553862	257,728034	95,398	0,033106	22,300000	52,180000
2,556919	259,711243	95,548	0,033943	22,300000	52,180000
2,559874	263,943785	95,698	0,035729	22,300000	52,180000
2,562839	265,894596	95,848	0,036552	22,300000	52,180000
2,565979	265,950135	95,998	0,036576	22,300000	52,180000
2,568954	269,476868	96,148	0,038064	22,300000	52,180000
2,571936	269,775391	96,298	0,038190	22,300000	52,180000
2,574866	271,711160	96,448	0,039007	22,300000	52,180000
2,577913	274,007933	96,598	0,039976	22,300000	52,180000
2,580898	275,833781	96,748	0,040747	22,300000	52,180000
2,583900	278,107413	96,898	0,041706	22,300000	52,180000
2,586956	281,908370	97,048	0,043310	22,300000	52,180000
2,589893	282,276316	97,198	0,043465	22,300000	52,180000
2,592858	285,929169	97,349	0,045007	22,300000	52,180000
2,595832	285,906028	97,500	0,044997	22,300000	52,180000
2,598892	290,122371	97,650	0,046776	22,300000	52,180000
2,601936	289,840047	97,800	0,046657	22,300000	52,180000
2,604975	292,215501	97,950	0,047660	22,300000	52,180000
2,607929	296,666728	98,100	0,049538	22,300000	52,180000
2,610893	297,568082	98,250	0,049918	22,300000	52,180000
2,613916	298,406953	98,400	0,050272	22,300000	52,180000
2,616893	301,966084	98,550	0,051774	22,300000	52,155000
2,619913	302,130387	98,700	0,051844	22,300000	52,155000
2,622947	306,425411	98,850	0,053656	22,300000	52,155000
2,625941	306,386071	99,001	0,053640	22,300000	52,155000
2,628915	310,116447	99,151	0,055214	22,300000	52,155000
2,631846	312,859847	99,301	0,056372	22,300000	52,155000
2,634927	313,957901	99,452	0,056835	22,300000	52,155000
2,637899	317,515875	99,603	0,058336	22,300000	52,155000
2,640860	317,257850	99,754	0,058228	22,300000	52,155000
2,643910	320,909545	99,905	0,059769	22,300000	52,155000
2,646915	321,191869	100,055	0,059888	22,300000	52,155000
2,649947	325,345731	100,205	0,061641	22,300000	52,155000
2,652897	324,993983	100,356	0,061492	22,300000	52,155000
2,655933	329,641912	100,506	0,063454	22,300000	52,155000
2,658940	329,327190	100,657	0,063321	22,300000	52,155000
2,661883	331,380980	100,807	0,064187	22,300000	52,155000
2,664857	333,356089	100,957	0,065021	22,300000	52,155000
2,667908	335,700302	101,107	0,066010	22,300000	52,155000
2,670888	337,762191	101,257	0,066880	22,300000	52,155000
2,673897	341,405787	101,408	0,068418	22,300000	52,155000
2,676973	341,845472	101,558	0,068604	22,300000	52,155000
2,679875	345,850072	101,709	0,070293	22,300000	52,155000
2,682893	345,866271	101,859	0,070300	22,300000	52,155000
2,685936	348,938278	102,009	0,071597	22,300000	52,155000
2,688889	350,153195	102,159	0,072109	22,300000	52,155000
2,691916	352,136404	102,310	0,072946	22,300000	52,155000
2,694889	356,744992	102,461	0,074891	22,300000	52,155000
2,697897	357,521383	102,611	0,075219	22,290000	52,160000
2,700883	360,993733	102,761	0,076684	22,290000	52,160000
2,703918	360,632729	102,911	0,076532	22,290000	52,160000
2,706875	362,451635	103,061	0,077299	22,290000	52,160000
2,709947	365,492400	103,211	0,078583	22,290000	52,160000
2,712899	366,699219	103,361	0,079092	22,290000	52,160000
2,715885	369,787424	103,511	0,080395	22,290000	52,160000
2,718939	370,853081	103,661	0,080845	22,290000	52,160000
2,721927	373,345398	103,811	0,081896	22,290000	52,160000
2,724867	377,311815	103,961	0,083570	22,290000	52,160000
2,727940	377,633479	104,111	0,083706	22,290000	52,160000
2,730847	382,061565	104,261	0,085575	22,290000	52,160000
2,733916	381,465677	104,411	0,085323	22,290000	52,160000
2,736887	383,425744	104,561	0,086150	22,290000	52,200000
2,739918	385,698219	104,712	0,087109	22,290000	52,200000
2,742921	387,500926	104,863	0,087870	22,290000	52,200000
2,745905	389,852081	105,013	0,088862	22,290000	52,200000
2,748824	392,831522	105,163	0,090120	22,290000	52,200000
2,751883	394,202644	105,313	0,090698	22,290000	52,200000
2,754831	398,451385	105,463	0,092491	22,290000	52,200000
2,757878	398,412045	105,614	0,092475	22,290000	52,200000
2,760852	401,899437	105,765	0,093946	22,290000	52,200000
2,763872	402,275483	105,915	0,094105	22,290000	52,200000
2,766928	404,281833	106,065	0,094952	22,290000	52,200000
2,769858	406,524224	106,215	0,095898	22,290000	52,200000
2,772899	408,405611	106,366	0,096692	22,290000	52,200000
2,775857	413,131063	106,516	0,098686	22,290000	52,200000
2,778849	412,606913	106,666	0,098465	22,300000	52,180000
2,781883	417,222443	106,817	0,100413	22,300000	52,180000
2,784830	417,301124	106,967	0,100446	22,300000	52,180000
2,787878	421,369363	107,118	0,102163	22,300000	52,180000
2,790991	421,103238	107,268	0,102050	22,300000	52,180000
2,793861	423,242650	107,418	0,102953	22,300000	52,180000
2,796883	426,252175	107,568	0,104223	22,300000	52,180000
2,799958	429,771966	107,718	0,105708	22,300000	52,180000
2,802910	430,571497	107,868	0,106046	22,300000	52,180000
2,805908	431,589714	108,018	0,106476	22,300000	52,180000
2,808905	434,795940	108,168	0,107829	22,300000	52,180000
2,811918	438,142171	108,319	0,109241	22,300000	52,180000
2,814827	438,596897	108,469	0,109433	22,300000	52,180000
2,817861	442,476535	108,621	0,111070	22,300000	52,180000
2,820895	442,218509	108,772	0,110961	22,300000	52,180000
2,823898	446,623454	108,922	0,112820	22,300000	52,180000
2,826951	446,842139	109,072	0,112912	22,300000	52,180000
2,829901	449,147012	109,222	0,113885	22,300000	52,180000
2,832880	450,644254	109,372	0,114517	22,300000	52,180000
2,835889	454,712493	109,522	0,116233	22,300000	52,180000
2,838859	454,955476	109,673	0,116336	22,300000	52,180000
2,841937	459,124380	109,823	0,118095	22,300000	52,180000
2,844876	459,140579	109,974	0,118102	22,300000	52,180000
2,847829	462,455569	110,124	0,119501	22,300000	52,180000
2,850903	463,223860	110,274	0,119825	22,300000	52,180000
2,853857	465,465094	110,425	0,120771	22,300000	52,180000
2,856894	469,807557	110,575	0,122604	22,290000	52,190000
2,859955	469,996159	110,725	0,122683	22,290000	52,190000
2,862916	471,289757	110,875	0,123229	22,290000	52,190000
2,865908	475,090714	111,025	0,124833	22,290000	52,190000
2,868886	475,803466	111,175	0,125134	22,290000	52,190000
2,871831	479,315157	111,325	0,126616	22,290000	52,190000
2,874873	480,342630	111,475	0,127049	22,290000	52,190000
2,877883	483,352155	111,625	0,128319	22,290000	52,190000
2,880904	484,550874	111,776	0,128825	22,290000	52,190000
2,883916	487,333614	111,926	0,130000	22,290000	52,190000
2,886838	488,799615	112,076	0,130618	22,290000	52,190000
2,889946	491,746658	112,226	0,131862	22,290000	52,190000
2,892896	493,102738	112,376	0,132434	22,290000	52,190000
2,895838	495,987300	112,526	0,133651	22,290000	52,190000
2,898870	497,217260	112,677	0,134170	22,290000	52,190000
2,901920	499,732718	112,828	0,135232	22,290000	52,190000
2,904840	503,871538	112,979	0,136979	22,290000	52,190000
2,907923	503,692193	113,130	0,136903	22,290000	52,190000
2,910885	508,041599	113,280	0,138738	22,290000	52,190000
2,913876	507,846055	113,431	0,138656	22,290000	52,190000
2,916872	509,969268	113,582	0,139552	22,290000	52,190000
2,919891	512,328523	113,733	0,140547	22,290000	52,190000
2,922935	514,405454	113,883	0,141424	22,290000	52,190000
2,925863	516,436102	114,034	0,142281	22,290000	52,190000
2,928923	519,445627	114,184	0,143551	22,290000	52,190000
2,931826	523,169061	114,335	0,145122	22,290000	52,190000
2,934852	522,934177	114,485	0,145023	22,290000	52,190000
2,937910	527,432844	114,635	0,146921	22,300000	52,165000
2,940843	527,354164	114,785	0,146888	22,300000	52,165000
2,943845	528,843306	114,935	0,147517	22,300000	52,165000
2,946860	531,131979	115,085	0,148482	22,300000	52,165000
2,949904	535,748667	115,236	0,150431	22,300000	52,165000
2,952922	535,858588	115,386	0,150477	22,300000	52,165000
2,955925	540,176753	115,536	0,152299	22,300000	52,165000
2,958887	540,122371	115,686	0,152276	22,300000	52,165000
2,961870	542,113679	115,836	0,153117	22,300000	52,165000
2,964852	546,832189	115,987	0,155108	22,300000	52,165000
2,967878	548,728617	116,138	0,155908	22,300000	52,165000
2,970864	550,750009	116,289	0,156761	22,300000	52,165000
2,973836	552,835040	116,439	0,157641	22,300000	52,165000
2,976878	552,726276	116,590	0,157595	22,300000	52,165000
2,979870	556,629054	116,742	0,159242	22,300000	52,165000
2,982811	557,201801	116,892	0,159484	22,300000	52,165000
2,985874	559,850322	117,043	0,160602	22,300000	52,165000
2,988892	561,370705	117,193	0,161243	22,300000	52,165000
2,991887	563,573756	117,343	0,162173	22,300000	52,165000
2,994804	565,634488	117,493	0,163042	22,300000	52,165000
2,997897	568,448469	117,643	0,164230	22,300000	52,165000
3,000895	572,477368	117,793	0,165930	22,300000	52,165000
3,003900	572,782833	117,943	0,166059	22,300000	52,165000
3,006926	576,498167	118,093	0,167627	22,300000	52,165000
3,009872	577,243317	118,244	0,167941	22,300000	52,165000
3,012866	578,512617	118,394	0,168477	22,300000	52,165000
3,015886	580,292182	118,544	0,169228	22,300000	52,155000
3,018865	582,643337	118,694	0,170220	22,300000	52,155000
3,021853	585,120612	118,845	0,171266	22,300000	52,155000
3,024843	589,384395	118,995	0,173065	22,300000	52,155000
3,027820	591,688111	119,146	0,174037	22,300000	52,155000
3,030881	593,640079	119,296	0,174861	22,300000	52,155000
3,033850	593,459577	119,446	0,174785	22,300000	52,155000
3,036839	596,759525	119,596	0,176177	22,300000	52,155000
3,039788	598,186186	119,747	0,176779	22,300000	52,155000
3,042936	600,043274	119,897	0,177563	22,300000	52,155000
3,045849	602,316906	120,047	0,178522	22,300000	52,155000
3,048896	604,190194	120,198	0,179313	22,300000	52,155000
3,051892	606,541349	120,348	0,180305	22,300000	52,155000
3,054886	609,245409	120,498	0,181446	22,300000	52,155000
3,057883	613,384229	120,648	0,183193	22,300000	52,155000
3,060831	613,579773	120,798	0,183275	22,300000	52,155000
3,063853	615,233218	120,949	0,183973	22,300000	52,155000
3,066843	617,044024	121,099	0,184737	22,300000	52,155000
3,069871	619,528242	121,249	0,185786	22,300000	52,155000
3,072901	621,770633	121,400	0,186732	22,300000	52,155000
3,075848	626,277399	121,550	0,188634	22,300000	52,155000
3,078840	626,223017	121,700	0,188611	22,300000	52,155000
3,081868	630,352581	121,850	0,190354	22,300000	52,155000
3,084824	631,089631	122,000	0,190665	22,300000	52,155000
3,087885	632,728034	122,150	0,191356	22,300000	52,155000
3,090779	634,640662	122,301	0,192163	22,300000	52,155000
3,093876	636,615771	122,451	0,192997	22,300000	52,155000
3,096850	639,366114	122,601	0,194157	22,300000	52,180000
3,099836	640,754591	122,751	0,194743	22,300000	52,180000
3,102899	643,481792	122,901	0,195894	22,300000	52,180000
3,105833	645,754267	123,052	0,196853	22,300000	52,180000
3,108862	647,479451	123,202	0,197581	22,300000	52,180000
3,111801	650,011108	123,354	0,198649	22,300000	52,180000
3,114896	651,868196	123,504	0,199433	22,300000	52,180000
3,117889	656,547366	123,654	0,201408	22,300000	52,180000
3,120883	656,461743	123,804	0,201372	22,300000	52,180000
3,123854	658,100146	123,954	0,202063	22,300000	52,180000
3,126820	660,435103	124,104	0,203048	22,300000	52,180000
3,129837	662,645096	124,254	0,203981	22,300000	52,180000
3,132749	667,504767	124,404	0,206032	22,300000	52,180000
3,135856	669,614096	124,554	0,206922	22,300000	52,180000
3,138834	670,138246	124,704	0,207143	22,300000	52,180000
3,141824	673,508775	124,854	0,208565	22,300000	52,180000
3,144817	673,626796	125,004	0,208615	22,300000	52,180000
3,147890	677,255350	125,154	0,210146	22,300000	52,180000
3,150895	677,701977	125,304	0,210335	22,300000	52,180000
3,153845	680,218593	125,454	0,211397	22,300000	52,180000
3,156875	684,567998	125,604	0,213232	22,300000	52,180000
3,159820	684,787841	125,754	0,213325	22,300000	52,180000
3,162862	686,355663	125,904	0,213987	22,300000	52,180000
3,165907	690,274641	126,054	0,215641	22,300000	52,180000
3,168788	690,407703	126,204	0,215697	22,300000	52,180000
3,171761	694,334780	126,354	0,217354	22,300000	52,180000
3,174814	694,970009	126,504	0,217622	22,300000	52,180000
3,177873	697,211243	126,654	0,218568	22,300000	52,180000
3,180890	699,217593	126,804	0,219415	22,300000	52,180000
3,183871	702,046616	126,954	0,220608	22,300000	52,180000
3,186886	703,811139	127,104	0,221353	22,300000	52,180000
3,189839	706,122954	127,254	0,222329	22,300000	52,180000
3,192850	710,637820	127,404	0,224234	22,300000	52,180000
3,195854	710,825265	127,555	0,224313	22,300000	52,180000
3,198838	715,026566	127,705	0,226086	22,300000	52,180000
3,201850	714,642421	127,855	0,225924	22,300000	52,180000
3,204845	717,134738	128,005	0,226976	22,300000	52,180000
3,207818	719,502092	128,155	0,227975	22,300000	52,180000
3,210841	721,163637	128,305	0,228676	22,300000	52,180000
3,213759	724,635987	128,455	0,230141	22,300000	52,180000
3,216848	725,616021	128,605	0,230555	22,290000	52,150000
3,219842	728,758609	128,755	0,231881	22,290000	52,150000
3,222843	732,348980	128,905	0,233396	22,290000	52,150000
3,225788	732,112939	129,055	0,233296	22,290000	52,150000
3,228813	736,800207	129,205	0,235274	22,290000	52,150000
3,231843	737,003851	129,355	0,235360	22,290000	52,150000
3,234802	738,289349	129,505	0,235903	22,290000	52,150000
3,237777	741,009608	129,655	0,237051	22,290000	52,150000
3,240825	742,859755	129,805	0,237832	22,290000	52,150000
3,243849	746,064823	129,956	0,239184	22,290000	52,150000
3,246906	747,146679	130,106	0,239641	22,290000	52,150000
3,249801	750,109921	130,256	0,240891	22,290000	52,150000
3,252810	754,137663	130,406	0,242591	22,290000	52,150000
3,255886	753,973360	130,556	0,242521	22,300000	52,195000
3,258822	758,425744	130,706	0,244400	22,300000	52,195000
3,261800	758,095981	130,856	0,244261	22,300000	52,195000
3,264872	762,853830	131,006	0,246269	22,300000	52,195000
3,267850	763,364096	131,156	0,246484	22,300000	52,195000
3,270797	764,751416	131,306	0,247070	22,300000	52,195000
3,273840	767,454319	131,456	0,248210	22,300000	52,195000
3,276888	769,148262	131,607	0,248925	22,300000	52,195000
3,279802	773,638829	131,757	0,250820	22,300000	52,195000
3,282811	775,943702	131,907	0,251793	22,300000	52,195000
3,285824	775,364013	132,057	0,251548	22,300000	52,195000
3,288890	780,199385	132,207	0,253589	22,300000	52,195000
3,291832	780,089464	132,358	0,253542	22,300000	52,195000
3,294858	782,464918	132,508	0,254545	22,300000	52,195000
3,297791	784,588131	132,658	0,255441	22,300000	52,195000
3,300843	786,986726	132,809	0,256453	22,300000	52,195000
3,303753	791,243567	132,960	0,258250	22,300000	52,195000
3,306835	792,537165	133,111	0,258795	22,300000	52,195000
3,309798	795,476109	133,262	0,260036	22,300000	52,195000
3,312784	796,494326	133,412	0,260465	22,300000	52,195000
3,315831	797,694202	133,562	0,260972	22,300000	52,195000
3,318829	800,859930	133,712	0,262308	22,300000	52,195000
3,321821	804,395920	133,862	0,263800	22,300000	52,195000
3,324801	804,693285	134,012	0,263925	22,300000	52,195000
3,327793	808,674745	134,162	0,265605	22,300000	52,195000
3,330841	809,129471	134,312	0,265797	22,300000	52,195000
3,333848	810,602414	134,462	0,266419	22,300000	52,195000
3,336850	813,345814	134,612	0,267577	22,300000	52,140000
3,339772	817,469592	134,762	0,269317	22,300000	52,140000
3,342857	817,641995	134,912	0,269390	22,300000	52,140000
3,345810	819,295440	135,062	0,270087	22,300000	52,140000
3,348797	822,547949	135,212	0,271460	22,300000	52,140000
3,351851	824,672319	135,362	0,272356	22,300000	52,140000
3,354817	825,855996	135,513	0,272856	22,300000	52,140000
3,357815	830,691369	135,663	0,274896	22,300000	52,140000
3,360787	830,237800	135,814	0,274705	22,300000	52,140000
3,363856	832,400354	135,964	0,275618	22,300000	52,140000
3,366848	836,719676	136,114	0,277440	22,300000	52,140000
3,369712	837,314407	136,264	0,277691	22,300000	52,140000
3,372879	838,819748	136,414	0,278327	22,300000	52,140000
3,375851	841,563148	136,564	0,279484	22,300000	52,180000
3,378813	843,380896	136,714	0,280251	22,300000	52,180000
3,381812	845,247242	136,864	0,281039	22,300000	52,180000
3,384801	847,770799	137,014	0,282104	22,300000	52,180000
3,387787	849,785249	137,164	0,282954	22,300000	52,180000
3,390817	854,566240	137,314	0,284972	22,300000	52,180000
3,393749	854,025890	137,465	0,284744	22,300000	52,180000
3,396844	856,212743	137,616	0,285667	22,300000	52,180000
3,399803	859,434010	137,766	0,287026	22,300000	52,180000
3,402790	862,929502	137,916	0,288501	22,300000	52,180000
3,405790	864,912711	138,066	0,289338	22,300000	52,180000
3,408782	865,201977	138,216	0,289460	22,300000	52,180000
3,411759	867,334447	138,366	0,290360	22,300000	52,180000
3,414793	869,465760	138,517	0,291259	22,300000	52,180000
3,417816	871,652612	138,667	0,292182	22,300000	52,165000
3,420801	876,144337	138,817	0,294078	22,300000	52,165000
3,423805	876,167478	138,967	0,294087	22,300000	52,165000
3,426747	879,561149	139,117	0,295520	22,300000	52,165000
3,429752	882,453810	139,267	0,296740	22,300000	52,165000
3,432826	882,704893	139,417	0,296846	22,300000	52,165000
3,435818	885,745659	139,568	0,298129	22,300000	52,165000
3,438736	886,827514	139,718	0,298586	22,300000	52,165000
3,441768	888,951885	139,869	0,299482	22,300000	52,165000
3,444841	891,122538	140,020	0,300398	22,300000	52,165000
3,447725	894,069581	140,170	0,301642	22,300000	52,165000
3,450801	898,082281	140,321	0,303335	22,300000	52,165000
3,453772	898,270883	140,471	0,303415	22,300000	52,165000
3,456831	902,455985	140,621	0,305181	22,300000	52,165000
3,459785	902,181761	140,771	0,305065	22,300000	52,165000
3,462753	906,673486	140,922	0,306961	22,300000	52,165000
3,465747	906,281241	141,072	0,306795	22,300000	52,165000
3,468790	910,796107	141,222	0,308701	22,300000	52,165000
3,471821	911,242734	141,373	0,308889	22,300000	52,165000
3,474779	914,063657	141,523	0,310080	22,300000	52,165000
3,477731	917,755850	141,674	0,311638	22,300000	52,165000
3,480839	917,990734	141,824	0,311737	22,300000	52,165000
3,483748	922,144596	141,974	0,313490	22,300000	52,165000
3,486820	924,191443	142,125	0,314354	22,300000	52,165000
3,489776	923,861680	142,276	0,314214	22,300000	52,165000
3,492804	927,263450	142,427	0,315650	22,300000	52,165000
3,495805	928,588289	142,577	0,316209	22,300000	52,220000
3,498783	931,543432	142,727	0,317456	22,300000	52,220000
3,501815	932,852072	142,878	0,318008	22,300000	52,220000
3,504814	935,807215	143,028	0,319255	22,300000	52,220000
3,507803	937,272058	143,178	0,319874	22,300000	52,220000
3,510713	941,606422	143,328	0,321703	22,300000	52,220000
3,513786	943,205485	143,479	0,322377	22,300000	52,220000
3,516759	943,950635	143,629	0,322692	22,300000	52,220000
3,519722	948,191277	143,780	0,324481	22,300000	52,220000
3,522762	948,050115	143,931	0,324422	22,300000	52,220000
3,525760	952,729284	144,081	0,326396	22,300000	52,220000
3,528743	952,345138	144,231	0,326234	22,300000	52,220000
3,531704	955,942452	144,381	0,327752	22,300000	52,220000
3,534815	959,532824	144,531	0,329268	22,300000	52,165000
3,537742	961,099489	144,681	0,329929	22,300000	52,165000
3,540794	961,256850	144,831	0,329995	22,300000	52,165000
3,543741	964,783583	144,981	0,331483	22,300000	52,165000
3,546773	965,842297	145,131	0,331930	22,300000	52,165000
3,549714	969,878138	145,281	0,333633	22,300000	52,165000
3,552717	970,114179	145,431	0,333733	22,300000	52,165000
3,555738	973,891995	145,582	0,335327	22,300000	52,165000
3,558772	976,689777	145,732	0,336508	22,300000	52,165000
3,561749	977,709151	145,882	0,336938	22,300000	52,165000
3,564838	978,531824	146,032	0,337285	22,300000	52,165000
3,567761	980,976701	146,183	0,338317	22,300000	52,165000
3,570748	983,202894	146,334	0,339256	22,300000	52,165000
3,573759	986,620862	146,484	0,340699	22,300000	52,165000
3,576775	990,060815	146,634	0,342150	22,290000	52,175000
3,579745	991,331272	146,784	0,342687	22,290000	52,175000
3,582779	991,958401	146,935	0,342951	22,290000	52,175000
3,585738	994,490059	147,085	0,344020	22,290000	52,175000
3,588652	998,525900	147,235	0,345723	22,290000	52,175000
3,591802	998,432178	147,385	0,345683	22,290000	52,175000
3,594801	1002,860264	147,536	0,347552	22,290000	52,175000
3,597766	1003,001426	147,686	0,347611	22,290000	52,175000
3,600750	1007,320748	147,836	0,349434	22,290000	52,175000
3,603708	1007,351988	147,986	0,349447	22,290000	52,175000
3,606723	1011,960576	148,137	0,351392	22,290000	52,175000
3,609712	1011,474609	148,287	0,351187	22,290000	52,175000
3,612785	1014,084947	148,437	0,352289	22,290000	52,175000
3,615763	1015,997575	148,588	0,353096	22,290000	52,190000
3,618728	1019,304465	148,738	0,354491	22,290000	52,190000
3,621754	1020,151437	148,888	0,354849	22,290000	52,190000
3,624814	1024,963668	149,038	0,356879	22,290000	52,190000
3,627755	1024,807464	149,188	0,356813	22,290000	52,190000
3,630784	1028,898845	149,338	0,358540	22,290000	52,190000
3,633758	1028,968269	149,488	0,358569	22,290000	52,190000
3,636742	1031,430502	149,638	0,359608	22,290000	52,190000
3,639752	1033,515532	149,788	0,360488	22,290000	52,190000
3,642806	1035,490642	149,938	0,361322	22,290000	52,190000
3,645724	1037,888079	150,088	0,362333	22,290000	52,190000
3,648734	1039,926827	150,238	0,363194	22,290000	52,190000
3,651766	1044,965843	150,388	0,365320	22,290000	52,190000
3,654786	1046,792848	150,539	0,366091	22,300000	52,180000
3,657791	1048,948460	150,690	0,367001	22,300000	52,180000
3,660737	1048,556215	150,840	0,366835	22,300000	52,180000
3,663766	1051,102914	150,991	0,367910	22,300000	52,180000
3,666744	1054,254758	151,141	0,369240	22,300000	52,180000
3,669731	1055,500916	151,291	0,369766	22,300000	52,180000
3,669732	1057,609088	151,441	0,370656	22,300000	52,180000
3,669729	1057,248084	151,591	0,370503	22,300000	52,180000
3,669739	1057,201801	151,742	0,370484	22,300000	52,180000
3,669756	1057,185602	151,892	0,370477	22,300000	52,180000
3,669737	1056,786415	152,042	0,370309	22,300000	52,180000
3,669721	1056,637154	152,192	0,370246	22,300000	52,180000
3,669803	1056,793358	152,342	0,370312	22,300000	52,180000
3,669789	1056,371029	152,492	0,370133	22,300000	52,180000
3,669803	1056,362930	152,642	0,370130	22,290000	52,175000
3,669776	1056,229867	152,792	0,370074	22,290000	52,175000
3,669785	1056,119946	152,942	0,370027	22,290000	52,175000
3,669768	1056,010025	153,092	0,369981	22,290000	52,175000
3,669810	1056,080606	153,242	0,370011	22,290000	52,175000
3,669745	1055,783240	153,393	0,369885	22,290000	52,175000
3,669745	1055,602738	153,543	0,369809	22,290000	52,175000
3,669679	1055,719602	153,694	0,369858	22,290000	52,175000
3,669748	1055,696460	153,844	0,369849	22,290000	52,175000
3,669732	1055,328514	153,995	0,369693	22,290000	52,175000
3,669683	1055,532157	154,145	0,369779	22,290000	52,175000
3,669644	1055,171153	154,295	0,369627	22,290000	52,175000
3,669724	1055,249833	154,446	0,369660	22,290000	52,175000
3,669711	1055,297273	154,596	0,369680	22,290000	52,175000
3,669730	1055,085530	154,747	0,369591	22,290000	52,175000
3,669704	1054,693285	154,898	0,369425	22,290000	52,175000
3,669788	1054,434103	155,049	0,369316	22,290000	52,175000
3,669744	1054,427160	155,200	0,369313	22,290000	52,175000
3,669762	1054,599563	155,350	0,369386	22,290000	52,175000
3,669733	1054,537082	155,500	0,369359	22,290000	52,175000
3,669699	1054,716427	155,650	0,369435	22,290000	52,175000
3,669803	1054,489642	155,800	0,369339	22,290000	52,175000
3,669783	1054,442202	155,950	0,369319	22,290000	52,175000
3,669778	1054,434103	156,100	0,369316	22,290000	52,175000
3,669677	1054,151779	156,251	0,369197	22,290000	52,175000
3,669734	1053,713252	156,401	0,369012	22,290000	52,175000
3,669684	1054,049957	156,551	0,369154	22,300000	52,180000
3,669691	1053,972434	156,701	0,369121	22,300000	52,180000
3,669790	1054,097397	156,851	0,369174	22,300000	52,180000
3,669792	1053,846314	157,001	0,369068	22,300000	52,180000
3,669710	1053,540849	157,152	0,368939	22,300000	52,180000
3,669744	1054,049957	157,302	0,369154	22,300000	52,180000
3,669755	1053,815073	157,453	0,369055	22,300000	52,180000
3,669758	1053,557048	157,604	0,368946	22,300000	52,180000
3,669799	1053,235384	157,754	0,368810	22,300000	52,180000
3,669684	1053,540849	157,905	0,368939	22,300000	52,180000
3,669752	1053,603330	158,055	0,368965	22,300000	52,180000
3,669761	1053,596388	158,205	0,368962	22,300000	52,180000
3,669659	1053,352247	158,355	0,368859	22,300000	52,180000
3,669714	1053,282824	158,505	0,368830	22,300000	52,180000
3,669774	1053,501509	158,655	0,368922	22,300000	52,140000
3,669786	1053,148604	158,805	0,368773	22,300000	52,140000
3,669756	1053,212243	158,955	0,368800	22,300000	52,140000
3,669725	1053,008599	159,105	0,368714	22,300000	52,140000
3,669685	1053,196044	159,255	0,368793	22,300000	52,140000
3,669736	1053,062981	159,405	0,368737	22,300000	52,140000
3,669762	1053,102322	159,556	0,368754	22,300000	52,140000
3,669776	1053,008599	159,707	0,368714	22,300000	52,140000
3,669769	1052,772558	159,858	0,368615	22,300000	52,140000
3,669734	1052,819998	160,008	0,368635	22,300000	52,140000
3,669776	1052,733218	160,158	0,368598	22,300000	52,140000
3,669809	1052,811898	160,308	0,368631	22,300000	52,140000
3,669756	1052,631396	160,458	0,368555	22,300000	52,140000
3,669744	1052,435852	160,608	0,368473	22,300000	52,140000
3,669747	1052,537674	160,758	0,368516	22,300000	52,140000
3,669782	1052,396512	160,908	0,368456	22,300000	52,140000
3,669769	1052,325931	161,058	0,368426	22,300000	52,140000
3,669730	1052,396512	161,209	0,368456	22,300000	52,140000
3,669745	1052,239151	161,360	0,368390	22,300000	52,140000
3,666733	1052,334031	161,510	0,368430	22,300000	52,140000
3,663750	1049,692452	161,660	0,367315	22,300000	52,140000
3,660746	1045,123204	161,810	0,365387	22,300000	52,140000
3,657698	1045,193785	161,960	0,365417	22,300000	52,140000
3,654742	1040,396595	162,110	0,363392	22,300000	52,140000
3,651790	1040,035591	162,260	0,363240	22,300000	52,140000
3,648713	1035,889829	162,410	0,361490	22,300000	52,140000
3,645741	1035,254600	162,561	0,361222	22,300000	52,180000
3,642737	1031,054456	162,711	0,359450	22,300000	52,180000
3,639719	1030,724693	162,861	0,359311	22,300000	52,180000
3,636805	1025,896262	163,011	0,357273	22,300000	52,180000
3,633723	1025,810639	163,161	0,357237	22,300000	52,180000
3,630728	1023,364605	163,312	0,356205	22,300000	52,180000
3,627713	1020,801707	163,462	0,355123	22,300000	52,180000
3,624765	1016,851488	163,612	0,353456	22,300000	52,180000
3,621791	1015,605330	163,762	0,352930	22,300000	52,180000
3,618792	1013,692702	163,912	0,352123	22,300000	52,180000
3,615786	1008,895512	164,062	0,350099	22,300000	52,180000
3,612683	1008,723110	164,213	0,350026	22,300000	52,180000
3,609802	1004,381804	164,364	0,348194	22,300000	52,180000
3,606731	1003,331189	164,514	0,347750	22,300000	52,180000
3,603734	1001,825848	164,664	0,347115	22,290000	52,160000
3,600757	998,903103	164,814	0,345882	22,290000	52,160000
3,597724	994,481959	164,964	0,344016	22,290000	52,160000
3,594721	994,976026	165,114	0,344225	22,290000	52,160000
3,591776	990,328097	165,264	0,342263	22,290000	52,160000
3,588768	990,045773	165,414	0,342144	22,290000	52,160000
3,585734	985,304123	165,565	0,340143	22,290000	52,160000
3,582751	985,539007	165,715	0,340242	22,290000	52,160000
3,579793	983,460919	165,865	0,339365	22,290000	52,160000
3,576742	980,648095	166,015	0,338178	22,290000	52,160000
3,573682	978,602405	166,165	0,337315	22,290000	52,160000
3,570747	976,093889	166,315	0,336256	22,290000	52,160000
3,567755	971,524641	166,465	0,334328	22,290000	52,160000
3,564758	971,547782	166,616	0,334338	22,290000	52,160000
3,561737	968,906204	166,766	0,333223	22,290000	52,160000
3,558770	966,853571	166,916	0,332357	22,290000	52,160000
3,555766	964,486217	167,067	0,331358	22,290000	52,160000
3,552719	962,142004	167,217	0,330369	22,290000	52,160000
3,549754	959,994492	167,367	0,329462	22,290000	52,160000
3,546756	957,658379	167,518	0,328477	22,290000	52,160000
3,543781	953,904862	167,668	0,326893	22,290000	52,160000
3,540764	952,870446	167,818	0,326456	22,290000	52,160000
3,537704	948,754767	167,969	0,324719	22,290000	52,160000
3,534821	946,709077	168,119	0,323856	22,290000	52,160000
3,531732	945,487217	168,270	0,323340	22,290000	52,160000
3,528791	940,987393	168,420	0,321441	22,290000	52,160000
3,525738	940,713168	168,571	0,321326	22,300000	52,155000
3,522778	938,989142	168,722	0,320598	22,300000	52,155000
3,519790	935,924078	168,872	0,319305	22,300000	52,155000
3,516829	934,466177	169,022	0,318689	22,300000	52,155000
3,513765	932,131220	169,173	0,317704	22,300000	52,155000
3,510852	927,435852	169,323	0,315723	22,300000	52,155000
3,507762	927,153529	169,474	0,315604	22,300000	52,155000
3,504725	923,987800	169,624	0,314268	22,300000	52,155000
3,501774	922,920986	169,774	0,313817	22,300000	52,155000
3,498764	920,648512	169,924	0,312858	22,300000	52,155000
3,495786	915,835123	170,074	0,310827	22,300000	52,155000
3,492765	913,680669	170,224	0,309918	22,300000	52,155000
3,489789	912,520133	170,374	0,309428	22,300000	52,155000
3,486716	911,398937	170,524	0,308955	22,300000	52,155000
3,483756	908,711076	170,674	0,307821	22,290000	52,175000
3,480849	906,641088	170,824	0,306947	22,290000	52,175000
3,477784	902,173662	170,974	0,305062	22,290000	52,175000
3,474783	901,162387	171,125	0,304635	22,290000	52,175000
3,471834	897,471351	171,276	0,303078	22,290000	52,175000
3,468836	895,707985	171,426	0,302333	22,290000	52,175000
3,465747	895,174578	171,576	0,302108	22,290000	52,175000
3,462794	890,942036	171,726	0,300322	22,290000	52,175000
3,459762	889,507276	171,876	0,299717	22,290000	52,175000
3,456770	888,214834	172,026	0,299171	22,290000	52,175000
3,453811	885,087289	172,176	0,297852	22,290000	52,175000
3,450767	883,018457	172,327	0,296979	22,290000	52,175000
3,447755	881,724859	172,477	0,296433	22,290000	52,175000
3,444761	877,625380	172,628	0,294703	22,290000	52,175000
3,441758	876,967010	172,779	0,294425	22,290000	52,175000
3,438767	874,074348	172,930	0,293204	22,290000	52,175000
3,435725	872,076098	173,080	0,292361	22,290000	52,175000
3,432825	869,834864	173,230	0,291415	22,290000	52,175000
3,429791	865,672902	173,380	0,289659	22,290000	52,175000
3,426756	865,343139	173,531	0,289520	22,290000	52,175000
3,423806	863,054465	173,681	0,288554	22,290000	52,175000
3,420762	860,342306	173,831	0,287409	22,290000	52,175000
3,417779	858,453977	173,981	0,286612	22,290000	52,175000
3,414816	856,345805	174,132	0,285723	22,290000	52,175000
3,411746	852,990318	174,282	0,284307	22,290000	52,175000
3,408744	851,596055	174,432	0,283718	22,290000	52,175000
3,405798	847,527816	174,583	0,282001	22,300000	52,195000
3,402785	847,292932	174,733	0,281902	22,300000	52,195000
3,399771	842,965510	174,883	0,280076	22,300000	52,195000
3,396802	842,801207	175,033	0,280007	22,300000	52,195000
3,393780	840,207068	175,183	0,278912	22,300000	52,195000
3,390826	838,184519	175,333	0,278059	22,300000	52,195000
3,387811	835,237476	175,484	0,276815	22,300000	52,195000
3,384740	831,169237	175,634	0,275098	22,300000	52,195000
3,381800	829,461410	175,784	0,274377	22,300000	52,195000
3,378852	829,241567	175,934	0,274285	22,300000	52,195000
3,375733	825,110847	176,084	0,272542	22,300000	52,195000
3,372781	824,766042	176,234	0,272396	22,300000	52,195000
3,369844	821,050707	176,384	0,270828	22,300000	52,195000
3,366847	819,891328	176,534	0,270339	22,290000	52,160000
3,363799	816,678160	176,684	0,268983	22,290000	52,160000
3,360832	813,087789	176,834	0,267468	22,290000	52,160000
3,357776	810,697293	176,985	0,266459	22,290000	52,160000
3,354764	808,454902	177,135	0,265513	22,290000	52,160000
3,351907	808,078856	177,285	0,265354	22,290000	52,160000
3,348766	804,120538	177,435	0,263684	22,290000	52,160000
3,345821	802,749417	177,585	0,263105	22,290000	52,160000
3,342776	802,184769	177,735	0,262867	22,290000	52,160000
3,339843	798,602497	177,885	0,261355	22,290000	52,160000
3,336802	796,314981	178,035	0,260390	22,290000	52,160000
3,333825	795,491151	178,185	0,260042	22,290000	52,160000
3,330851	790,726359	178,335	0,258031	22,290000	52,160000
3,327811	790,796940	178,485	0,258061	22,290000	52,160000
3,324881	786,375796	178,635	0,256195	22,290000	52,160000
3,321820	786,508858	178,785	0,256251	22,290000	52,160000
3,318822	784,330106	178,935	0,255332	22,290000	52,160000
3,315788	780,842713	179,085	0,253860	22,290000	52,160000
3,312761	779,627795	179,235	0,253348	22,290000	52,160000
3,309825	777,189860	179,386	0,252319	22,290000	52,160000
3,306837	773,387746	179,536	0,250714	22,290000	52,160000
3,303850	772,816156	179,686	0,250473	22,290000	52,160000
3,300785	768,113846	179,837	0,248489	22,290000	52,160000
3,297909	767,808381	179,987	0,248360	22,290000	52,160000
3,294763	763,927586	180,138	0,246722	22,290000	52,160000
3,291758	763,888246	180,288	0,246706	22,290000	52,160000
3,288873	761,412128	180,438	0,245661	22,290000	52,160000
3,285901	759,264616	180,588	0,244754	22,300000	52,165000
3,282828	757,202727	180,738	0,243884	22,300000	52,165000
3,279820	754,569248	180,888	0,242773	22,300000	52,165000
3,276830	752,390495	181,038	0,241854	22,300000	52,165000
3,273841	750,266125	181,189	0,240957	22,300000	52,165000
3,270855	748,016791	181,340	0,240008	22,300000	52,165000
3,267837	743,337622	181,490	0,238033	22,300000	52,165000
3,264778	741,503675	181,640	0,237259	22,300000	52,165000
3,261862	740,359338	181,790	0,236776	22,300000	52,165000
3,258859	739,049541	181,940	0,236224	22,300000	52,165000
3,255792	736,903186	182,090	0,235318	22,300000	52,165000
3,252857	734,535832	182,240	0,234319	22,300000	52,165000
3,249823	732,388320	182,390	0,233413	22,300000	52,165000
3,246879	729,919144	182,540	0,232371	22,300000	52,155000
3,243822	727,826015	182,691	0,231487	22,300000	52,155000
3,240930	724,808390	182,841	0,230214	22,300000	52,155000
3,237873	720,646429	182,991	0,228458	22,300000	52,155000
3,234823	720,301624	183,141	0,228312	22,300000	52,155000
3,231839	716,288924	183,291	0,226619	22,300000	52,155000
3,228842	715,543774	183,442	0,226304	22,300000	52,155000
3,225873	714,313814	183,593	0,225785	22,300000	52,155000
3,222833	711,186269	183,743	0,224465	22,300000	52,155000
3,219861	709,892671	183,893	0,223919	22,300000	52,155000
3,216822	706,984967	184,043	0,222692	22,300000	52,155000
3,213837	705,888070	184,193	0,222229	22,300000	52,155000
3,210838	702,517541	184,343	0,220807	22,300000	52,155000
3,207821	698,754767	184,493	0,219219	22,300000	52,155000
3,204822	698,708485	184,644	0,219200	22,290000	52,160000
3,201861	694,264199	184,795	0,217324	22,290000	52,160000
3,198850	694,459743	184,945	0,217407	22,290000	52,160000
3,195785	692,257850	185,096	0,216478	22,290000	52,160000
3,192856	687,475702	185,246	0,214459	22,290000	52,160000
3,189885	685,579273	185,396	0,213659	22,290000	52,160000
3,186894	685,454310	185,546	0,213606	22,290000	52,160000
3,183827	681,119946	185,696	0,211777	22,290000	52,160000
3,180895	681,103747	185,846	0,211771	22,290000	52,160000
3,177828	678,854414	185,996	0,210821	22,290000	52,160000
3,174870	674,183344	186,147	0,208850	22,290000	52,160000
3,171796	673,556215	186,298	0,208585	22,290000	52,160000
3,168714	669,652279	186,448	0,206938	22,290000	52,160000
3,165821	668,461660	186,599	0,206436	22,290000	52,160000
3,162843	667,693369	186,749	0,206111	22,290000	52,160000
3,159822	663,892412	186,899	0,204507	22,290000	52,160000
3,156843	663,500167	187,050	0,204342	22,290000	52,160000
3,153889	660,991651	187,200	0,203283	22,290000	52,160000
3,150872	656,642245	187,350	0,201448	22,290000	52,160000
3,147783	656,492984	187,500	0,201385	22,290000	52,160000
3,144872	652,158620	187,650	0,199556	22,290000	52,160000
3,141812	651,178586	187,800	0,199142	22,290000	52,160000
3,138817	650,034249	187,952	0,198659	22,290000	52,160000
3,135850	647,949219	188,103	0,197779	22,290000	52,160000
3,132860	645,832948	188,253	0,196886	22,290000	52,160000
3,129846	641,106339	188,403	0,194892	22,290000	52,160000
3,126880	640,158703	188,553	0,194492	22,300000	52,155000
3,123863	636,638913	188,703	0,193006	22,300000	52,155000
3,120857	634,507600	188,854	0,192107	22,300000	52,155000
3,117844	632,383229	189,004	0,191210	22,300000	52,155000
3,114834	630,282000	189,154	0,190324	22,300000	52,155000
3,111817	630,493743	189,304	0,190413	22,300000	52,155000
3,108874	625,980034	189,455	0,188508	22,300000	52,155000
3,105886	625,642171	189,605	0,188366	22,300000	52,155000
3,102834	624,129887	189,756	0,187728	22,300000	52,155000
3,099873	618,823589	189,906	0,185488	22,300000	52,155000
3,096830	617,357588	190,056	0,184870	22,300000	52,155000
3,093853	615,257516	190,206	0,183983	22,300000	52,155000
3,090864	613,015125	190,356	0,183037	22,300000	52,155000
3,087852	612,780241	190,507	0,182938	22,300000	52,155000
3,084854	608,751342	190,658	0,181238	22,290000	52,190000
3,081833	608,352155	190,808	0,181069	22,290000	52,190000
3,078821	605,984801	190,958	0,180070	22,290000	52,190000
3,075889	603,891671	191,108	0,179187	22,290000	52,190000
3,072868	600,271216	191,258	0,177659	22,290000	52,190000
3,069853	597,496575	191,408	0,176488	22,290000	52,190000
3,066890	597,041849	191,558	0,176296	22,290000	52,190000
3,063834	592,651946	191,708	0,174444	22,290000	52,190000
3,060851	591,656870	191,858	0,174024	22,290000	52,190000
3,057811	590,371371	192,008	0,173481	22,290000	52,190000
3,054871	585,692202	192,158	0,171507	22,290000	52,190000
3,051886	586,076348	192,308	0,171669	22,290000	52,190000
3,048926	583,623371	192,458	0,170634	22,290000	52,190000
3,045952	579,170986	192,609	0,168755	22,290000	52,190000
3,042805	578,834281	192,759	0,168613	22,290000	52,190000
3,039917	574,695461	192,910	0,166866	22,290000	52,190000
3,036827	575,009025	193,060	0,166999	22,290000	52,190000
3,033783	572,782833	193,210	0,166059	22,290000	52,190000
3,030905	568,229784	193,361	0,164138	22,290000	52,190000
3,027920	568,080522	193,511	0,164075	22,290000	52,190000
3,024837	566,128555	193,661	0,163251	22,290000	52,190000
3,021866	563,260191	193,812	0,162041	22,290000	52,190000
3,018861	561,841630	193,962	0,161442	22,290000	52,190000
3,015813	557,162461	194,112	0,159467	22,290000	52,190000
3,012901	557,569748	194,262	0,159639	22,290000	52,190000
3,009924	553,038683	194,412	0,157727	22,290000	52,190000
3,006884	552,984301	194,562	0,157704	22,290000	52,175000
3,003910	549,590631	194,713	0,156272	22,290000	52,175000
3,000804	548,579356	194,863	0,155845	22,290000	52,175000
2,997837	546,486226	195,013	0,154962	22,290000	52,175000
2,994871	541,760775	195,163	0,152968	22,290000	52,175000
2,991895	541,565231	195,314	0,152885	22,290000	52,175000
2,988862	539,792608	195,464	0,152137	22,290000	52,175000
2,985853	535,944211	195,614	0,150513	22,290000	52,175000
2,982822	535,302040	195,764	0,150242	22,290000	52,175000
2,979868	532,135154	195,914	0,148906	22,290000	52,175000
2,976808	530,944535	196,064	0,148403	22,290000	52,175000
2,973834	527,597147	196,215	0,146991	22,290000	52,175000
2,970791	524,172236	196,365	0,145545	22,290000	52,175000
2,967927	524,219676	196,516	0,145565	22,290000	52,175000
2,964854	519,351905	196,666	0,143511	22,300000	52,180000
2,961882	520,120196	196,817	0,143835	22,300000	52,180000
2,958863	515,441027	196,967	0,141861	22,300000	52,180000
2,955909	515,385488	197,118	0,141837	22,300000	52,180000
2,952873	510,808140	197,269	0,139906	22,300000	52,180000
2,949993	511,231626	197,420	0,140084	22,300000	52,180000
2,946859	509,107255	197,571	0,139188	22,300000	52,180000
2,943869	506,779241	197,721	0,138206	22,300000	52,180000
2,940852	502,907703	197,871	0,136572	22,300000	52,180000
2,937902	502,452977	198,021	0,136380	22,300000	52,180000
2,934891	497,624546	198,172	0,134342	22,300000	52,180000
2,931839	497,711326	198,322	0,134379	22,300000	52,180000
2,928914	493,877971	198,472	0,132761	22,300000	52,180000
2,925920	491,456235	198,622	0,131739	22,300000	52,180000
2,922866	490,413720	198,772	0,131299	22,300000	52,180000
2,919906	486,847647	198,922	0,129794	22,300000	52,180000
2,916822	485,437185	199,073	0,129199	22,300000	52,180000
2,913904	484,567073	199,224	0,128832	22,300000	52,180000
2,910952	480,224609	199,375	0,127000	22,300000	52,180000
2,907920	480,287091	199,526	0,127026	22,300000	52,180000
2,904913	478,085197	199,676	0,126097	22,300000	52,180000
2,901881	473,585373	199,826	0,124198	22,300000	52,180000
2,898913	473,655954	199,976	0,124228	22,300000	52,180000
2,895931	469,431511	200,126	0,122445	22,300000	52,180000
2,892889	469,282250	200,276	0,122382	22,300000	52,180000
2,889878	467,032916	200,426	0,121433	22,300000	52,180000
2,886907	462,722851	200,576	0,119614	22,300000	52,180000
2,883812	462,761034	200,726	0,119630	22,300000	52,180000
2,880914	460,488559	200,876	0,118671	22,300000	52,180000
2,877913	456,444618	201,026	0,116964	22,300000	52,180000
2,874859	456,216677	201,176	0,116868	22,300000	52,180000
2,871891	451,709910	201,326	0,114966	22,300000	52,180000
2,868923	452,015375	201,476	0,115095	22,300000	52,180000
2,865833	450,102747	201,626	0,114288	22,300000	52,180000
2,862925	445,141254	201,777	0,112194	22,300000	52,180000
2,859817	445,479117	201,927	0,112337	22,300000	52,180000
2,856885	440,713168	202,077	0,110326	22,300000	52,180000
2,853899	440,345222	202,227	0,110170	22,300000	52,180000
2,850869	436,598647	202,377	0,108589	22,300000	52,180000
2,847860	436,175161	202,528	0,108411	22,300000	52,180000
2,844921	434,403695	202,678	0,107663	22,300000	52,205000
2,841874	430,829523	202,828	0,106155	22,300000	52,205000
2,838848	427,733218	202,978	0,104848	22,300000	52,205000
2,835901	426,534499	203,128	0,104342	22,300000	52,205000
2,832888	425,813648	203,278	0,104038	22,300000	52,205000
2,829903	423,901020	203,428	0,103231	22,300000	52,205000
2,826873	421,448043	203,578	0,102196	22,300000	52,205000
2,823963	417,928253	203,728	0,100710	22,300000	52,205000
2,820886	414,777566	203,879	0,099381	22,300000	52,205000
2,817822	414,229117	204,030	0,099149	22,300000	52,205000
2,814837	410,466343	204,180	0,097562	22,300000	52,205000
2,811908	410,921070	204,332	0,097753	22,300000	52,205000
2,808906	408,405611	204,482	0,096692	22,300000	52,205000
2,805914	405,473610	204,632	0,095455	22,300000	52,195000
2,802901	404,306132	204,782	0,094962	22,300000	52,195000
2,799871	401,413470	204,932	0,093741	22,300000	52,195000
2,796813	399,469602	205,082	0,092921	22,300000	52,195000
2,793869	397,118446	205,232	0,091929	22,300000	52,195000
2,790830	393,074506	205,382	0,090222	22,300000	52,195000
2,787965	392,838465	205,533	0,090123	22,300000	52,195000
2,784886	389,436695	205,684	0,088687	22,300000	52,195000
2,781881	386,395929	205,834	0,087404	22,300000	52,195000
2,778842	386,435269	205,985	0,087420	22,300000	52,195000
2,775815	384,389579	206,135	0,086557	22,300000	52,195000
2,772765	380,032074	206,286	0,084718	22,300000	52,195000
2,769912	380,188278	206,436	0,084784	22,300000	52,195000
2,766910	375,712752	206,587	0,082896	22,300000	52,205000
2,763924	375,635228	206,738	0,082863	22,300000	52,205000
2,760871	372,366521	206,888	0,081483	22,300000	52,205000
2,757919	371,245325	207,038	0,081010	22,300000	52,205000
2,754926	369,372038	207,188	0,080220	22,300000	52,205000
2,751873	364,449885	207,339	0,078143	22,300000	52,205000
2,748948	364,096981	207,489	0,077994	22,300000	52,205000
2,745885	362,867021	207,639	0,077475	22,300000	52,205000
2,742908	359,613355	207,789	0,076102	22,300000	52,205000
2,739893	358,383396	207,940	0,075583	22,300000	52,205000
2,736934	355,412054	208,090	0,074329	22,300000	52,205000
2,733885	351,454893	208,240	0,072659	22,300000	52,205000
2,730884	351,540516	208,390	0,072695	22,300000	52,205000
2,727915	349,534166	208,540	0,071848	22,300000	52,155000
2,724925	347,606496	208,691	0,071035	22,300000	52,155000
2,721918	345,129221	208,841	0,069989	22,300000	52,155000
2,718927	342,871788	208,991	0,069037	22,300000	52,155000
2,715889	338,356922	209,141	0,067131	22,300000	52,155000
2,712900	338,608005	209,291	0,067237	22,300000	52,155000
2,709866	336,522975	209,442	0,066357	22,300000	52,155000
2,706883	334,446044	209,592	0,065481	22,300000	52,155000
2,703915	332,384155	209,742	0,064611	22,300000	52,155000
2,700941	330,339622	209,892	0,063748	22,300000	52,155000
2,697931	328,136571	210,042	0,062818	22,300000	52,155000
2,694856	325,792358	210,192	0,061829	22,300000	52,155000
2,691858	323,779065	210,342	0,060979	22,300000	52,155000
2,688915	321,576015	210,492	0,060050	22,300000	52,155000
2,685931	319,443545	210,642	0,059150	22,300000	52,165000
2,682884	314,882396	210,792	0,057225	22,300000	52,165000
2,679919	312,711743	210,942	0,056309	22,300000	52,165000
2,676945	312,805465	211,092	0,056349	22,300000	52,165000
2,673917	308,620362	211,242	0,054583	22,300000	52,165000
2,670905	306,126888	211,393	0,053530	22,300000	52,165000
2,667825	306,346731	211,543	0,053623	22,300000	52,165000
2,664934	301,613179	211,693	0,051625	22,300000	52,165000
2,661899	300,899271	211,843	0,051324	22,300000	52,165000
2,658880	297,137654	211,993	0,049737	22,300000	52,165000
2,655930	297,035832	212,143	0,049694	22,300000	52,165000
2,652916	295,483051	212,293	0,049039	22,300000	52,165000
2,649892	291,916978	212,443	0,047534	22,300000	52,165000
2,646872	288,735051	212,593	0,046191	22,300000	52,165000
2,643907	288,946794	212,744	0,046280	22,300000	52,165000
2,640914	284,604330	212,894	0,044448	22,300000	52,165000
2,637853	283,499334	213,044	0,043981	22,300000	52,165000
2,634948	280,160045	213,194	0,042572	22,300000	52,165000
2,631941	279,800198	213,344	0,042420	22,300000	52,165000
2,628932	275,582698	213,495	0,040641	22,300000	52,165000
2,625900	274,430261	213,645	0,040154	22,300000	52,165000
2,622934	271,327014	213,795	0,038845	22,300000	52,165000
2,619932	270,503184	213,945	0,038497	22,300000	52,165000
2,616914	269,148262	214,095	0,037925	22,300000	52,165000
2,613880	267,493659	214,245	0,037227	22,300000	52,165000
2,610920	262,979950	214,395	0,035322	22,300000	52,165000
2,607924	261,059223	214,545	0,034512	22,290000	52,190000
2,604921	260,870622	214,695	0,034432	22,290000	52,190000
2,601873	258,456985	214,845	0,033414	22,290000	52,190000
2,598869	256,716760	214,995	0,032679	22,290000	52,190000
2,595961	253,902779	215,146	0,031492	22,290000	52,190000
2,592956	252,602238	215,297	0,030943	22,290000	52,190000
2,589843	249,890079	215,447	0,029798	22,290000	52,190000
2,586899	246,347147	215,597	0,028303	22,290000	52,190000
2,583887	245,273391	215,748	0,027850	22,290000	52,190000
2,580968	243,705569	215,898	0,027188	22,290000	52,190000
2,577889	241,699219	216,049	0,026342	22,290000	52,190000
2,574878	237,231792	216,199	0,024457	22,290000	52,190000
2,571924	235,225442	216,350	0,023610	22,290000	52,190000
2,568953	234,989401	216,500	0,023510	22,290000	52,190000
2,565967	233,335956	216,650	0,022812	22,290000	52,190000
2,562921	229,393837	216,800	0,021149	22,290000	52,190000
2,559932	228,625546	216,950	0,020825	22,290000	52,190000
2,556888	225,765283	217,101	0,019618	22,290000	52,190000
2,553959	224,831531	217,251	0,019224	22,290000	52,190000
2,550866	220,262283	217,401	0,017295	22,290000	52,190000
2,547911	217,832448	217,551	0,016270	22,290000	52,190000
2,544877	218,349656	217,702	0,016488	22,290000	52,190000
2,541941	215,911721	217,852	0,015459	22,290000	52,190000
2,538918	213,356922	218,003	0,014381	22,290000	52,190000
2,535949	211,985801	218,153	0,013803	22,290000	52,190000
2,532884	209,265542	218,303	0,012655	22,290000	52,190000
2,529894	207,658379	218,453	0,011977	22,290000	52,190000
2,526926	202,932927	218,603	0,009982	22,300000	52,180000
2,523937	200,706735	218,753	0,009043	22,300000	52,180000
2,520948	200,746075	218,903	0,009060	22,300000	52,180000
2,517890	199,123871	219,053	0,008375	22,300000	52,180000
2,514956	195,769541	219,203	0,006959	22,300000	52,180000
2,511920	194,577764	219,353	0,006457	22,300000	52,180000
2,508890	191,786924	219,503	0,005279	22,300000	52,180000
2,505878	188,025307	219,654	0,003691	22,300000	52,180000
2,502887	187,350739	219,804	0,003407	22,300000	52,180000
2,499864	183,714085	219,955	0,001872	22,300000	52,180000
2,496924	183,463002	220,105	0,001766	22,300000	52,180000
2,493958	179,151779	220,255	-0,000053	22,300000	52,180000
2,490871	179,379721	220,405	0,000043	22,300000	52,180000
2,487894	177,514533	220,555	-0,000744	22,300000	52,140000
2,484868	172,929086	220,705	-0,002679	22,300000	52,140000
2,481977	171,353164	220,856	-0,003344	22,300000	52,140000
2,478955	171,313824	221,006	-0,003361	22,300000	52,140000
2,475916	168,923328	221,156	-0,004370	22,300000	52,140000
2,472943	166,760775	221,306	-0,005282	22,300000	52,140000
2,469967	163,201644	221,456	-0,006784	22,300000	52,140000
2,466836	163,116021	221,606	-0,006820	22,300000	52,140000
2,463974	159,267624	221,757	-0,008444	22,300000	52,140000
2,460945	156,256942	221,907	-0,009715	22,300000	52,140000
2,457918	156,798449	222,058	-0,009486	22,300000	52,140000
2,454880	152,056798	222,208	-0,011487	22,300000	52,140000
2,451892	152,103081	222,358	-0,011468	22,300000	52,140000
2,448878	147,753675	222,509	-0,013303	22,300000	52,140000
2,445865	147,000426	222,660	-0,013621	22,290000	52,160000
2,442932	145,778566	222,811	-0,014137	22,290000	52,160000
2,439905	143,324432	222,961	-0,015172	22,290000	52,160000
2,436941	139,226109	223,111	-0,016902	22,290000	52,160000
2,433952	139,507276	223,261	-0,016783	22,290000	52,160000
2,430908	137,132979	223,411	-0,017785	22,290000	52,160000
2,427957	133,018457	223,561	-0,019521	22,290000	52,160000
2,424930	130,830448	223,712	-0,020445	22,290000	52,160000
2,421891	130,979710	223,862	-0,020382	22,290000	52,160000
2,418886	128,934020	224,012	-0,021245	22,290000	52,160000
2,415920	126,606006	224,162	-0,022228	22,290000	52,160000
2,412943	122,084197	224,312	-0,024136	22,290000	52,160000
2,409863	122,742567	224,462	-0,023858	22,290000	52,160000
2,406919	120,022308	224,612	-0,025006	22,290000	52,200000
2,403872	118,007859	224,762	-0,025856	22,290000	52,200000
2,400941	116,526816	224,913	-0,026481	22,290000	52,200000
2,397897	111,878888	225,063	-0,028442	22,290000	52,200000
2,395029	111,259858	225,213	-0,028704	22,290000	52,200000
2,391898	110,178003	225,363	-0,029160	22,290000	52,200000
2,388933	106,909295	225,514	-0,030540	22,290000	52,200000
2,385874	105,733718	225,664	-0,031036	22,290000	52,200000
2,382861	103,852331	225,815	-0,031830	22,290000	52,200000
2,379945	101,407453	225,965	-0,032861	22,290000	52,200000
2,376874	99,581605	226,116	-0,033632	22,290000	52,200000
2,373880	94,894337	226,266	-0,035610	22,290000	52,200000
2,370917	95,121122	226,416	-0,035514	22,290000	52,200000
2,367928	93,615781	226,566	-0,036149	22,300000	52,155000
2,364908	90,630554	226,716	-0,037409	22,300000	52,155000
2,361854	89,328856	226,867	-0,037958	22,300000	52,155000
2,358906	85,158796	227,017	-0,039718	22,300000	52,155000
2,355941	82,815740	227,167	-0,040707	22,300000	52,155000
2,352928	82,219852	227,317	-0,040958	22,300000	52,155000
2,349917	81,013033	227,467	-0,041468	22,300000	52,155000
2,346923	78,598239	227,618	-0,042487	22,300000	52,155000
2,343895	74,711660	227,768	-0,044127	22,300000	52,155000
2,340939	74,201394	227,919	-0,044342	22,300000	52,155000
2,337913	70,283573	228,069	-0,045996	22,300000	52,155000
2,334955	69,052457	228,219	-0,046515	22,300000	52,155000
2,331879	65,956152	228,369	-0,047822	22,300000	52,155000
2,328888	66,661961	228,519	-0,047524	22,300000	52,155000
2,325937	62,444461	228,670	-0,049304	22,300000	52,220000
2,322870	59,850322	228,820	-0,050398	22,300000	52,220000
2,319869	58,016375	228,970	-0,051172	22,300000	52,220000
2,316949	57,742150	229,120	-0,051288	22,300000	52,220000
2,313969	53,854414	229,270	-0,052929	22,300000	52,220000
2,310901	53,956235	229,421	-0,052886	22,300000	52,220000
2,307855	52,012367	229,571	-0,053706	22,300000	52,220000
2,304871	49,904195	229,721	-0,054596	22,300000	52,220000
2,301885	45,891495	229,871	-0,056289	22,300000	52,220000
2,298885	43,296199	230,021	-0,057384	22,300000	52,220000
2,295870	42,983792	230,172	-0,057516	22,300000	52,220000
2,292901	39,345981	230,322	-0,059051	22,300000	52,220000
2,289925	37,700635	230,472	-0,059746	22,300000	52,220000
2,286933	36,955485	230,622	-0,060060	22,300000	52,165000
2,284056	33,335030	230,772	-0,061588	22,300000	52,165000
2,280968	33,985301	230,922	-0,061313	22,300000	52,165000
2,277947	31,704726	231,072	-0,062276	22,300000	52,165000
2,274883	29,713418	231,222	-0,063116	22,300000	52,165000
2,271910	27,597147	231,373	-0,064009	22,300000	52,165000
2,268951	23,294024	231,524	-0,065825	22,300000	52,165000
2,265903	23,105422	231,674	-0,065905	22,300000	52,165000
2,262920	21,679919	231,824	-0,066506	22,300000	52,165000
2,259914	17,603580	231,974	-0,068227	22,300000	52,165000
2,256929	17,854663	232,124	-0,068121	22,300000	52,165000
2,253936	14,876379	232,275	-0,069377	22,300000	52,165000
2,250987	13,622121	232,425	-0,069907	22,300000	52,165000
2,247969	11,137904	232,575	-0,070955	22,300000	52,165000
2,244907	9,742484	232,725	-0,071544	22,300000	52,165000
2,241908	5,063315	232,875	-0,073519	22,300000	52,165000
2,238891	5,736726	233,026	-0,073234	22,300000	52,165000
2,235832	1,026316	233,176	-0,075222	22,300000	52,165000
2,232911	0,901353	233,327	-0,075275	22,300000	52,165000
2,229919	-0,745150	233,477	-0,075970	22,300000	52,165000
2,226890	-5,055215	233,627	-0,077789	22,300000	52,165000
2,223874	-4,616688	233,777	-0,077604	22,300000	52,165000
2,220909	-8,693026	233,927	-0,079324	22,300000	52,165000
2,217896	-10,683177	234,077	-0,080164	22,300000	52,165000
2,214940	-11,114762	234,227	-0,080346	22,300000	52,165000
2,211863	-13,222934	234,377	-0,081235	22,300000	52,165000
2,208894	-16,115595	234,528	-0,082456	22,300000	52,165000
2,205929	-17,079430	234,678	-0,082863	22,290000	52,160000
2,202910	-20,668644	234,828	-0,084377	22,290000	52,160000
2,199867	-22,801114	234,979	-0,085277	22,290000	52,160000
2,196964	-24,674402	235,130	-0,086068	22,290000	52,160000
2,193939	-27,644587	235,280	-0,087321	22,290000	52,160000
2,190913	-27,723267	235,430	-0,087354	22,290000	52,160000
2,187955	-29,314231	235,581	-0,088026	22,290000	52,160000
2,184955	-32,425578	235,731	-0,089339	22,290000	52,160000
2,181904	-33,311889	235,882	-0,089713	22,290000	52,160000
2,178906	-36,203393	236,032	-0,090933	22,290000	52,160000
2,175892	-40,059890	236,182	-0,092561	22,290000	52,160000
2,172888	-39,457059	236,332	-0,092306	22,290000	52,160000
2,169948	-41,627712	236,483	-0,093222	22,290000	52,160000
2,166909	-44,489133	236,633	-0,094430	22,310000	52,165000
2,163885	-45,773475	236,783	-0,094972	22,310000	52,165000
2,160930	-47,953384	236,933	-0,095892	22,310000	52,165000
2,157950	-52,294690	237,083	-0,097724	22,310000	52,165000
2,154865	-53,573247	237,233	-0,098263	22,310000	52,165000
2,151948	-55,681418	237,384	-0,099153	22,310000	52,165000
2,148918	-55,971842	237,535	-0,099275	22,310000	52,165000
2,145958	-58,549782	237,685	-0,100363	22,310000	52,165000
2,142967	-60,093306	237,835	-0,101015	22,310000	52,165000
2,139900	-63,213909	237,985	-0,102332	22,310000	52,165000
2,136939	-66,466417	238,135	-0,103704	22,310000	52,165000
2,133918	-68,504008	238,285	-0,104564	22,310000	52,165000
2,130960	-67,986800	238,435	-0,104346	22,310000	52,165000
2,127892	-72,556048	238,585	-0,106274	22,310000	52,165000
2,124950	-72,650928	238,735	-0,106314	22,310000	52,165000
2,121930	-76,781648	238,885	-0,108057	22,310000	52,165000
2,118893	-76,929752	239,035	-0,108120	22,310000	52,165000
2,115904	-78,638737	239,186	-0,108841	22,310000	52,165000
2,112960	-80,817489	239,336	-0,109760	22,310000	52,165000
2,109924	-84,038757	239,487	-0,111120	22,310000	52,165000
2,106900	-87,268124	239,637	-0,112482	22,310000	52,165000
2,103940	-87,463668	239,788	-0,112565	22,310000	52,165000
2,100930	-88,663544	239,938	-0,113071	22,310000	52,165000
2,097896	-91,901011	240,088	-0,114437	22,310000	52,165000
2,094861	-95,106080	240,238	-0,115790	22,310000	52,165000
2,091950	-94,503249	240,388	-0,115536	22,310000	52,165000
2,088888	-98,908194	240,539	-0,117395	22,300000	52,140000
2,085940	-98,868854	240,690	-0,117378	22,300000	52,140000
2,082928	-100,256174	240,840	-0,117963	22,300000	52,140000
2,079943	-104,958485	240,991	-0,119948	22,300000	52,140000
2,076911	-106,651270	241,142	-0,120662	22,300000	52,140000
2,073887	-108,956143	241,292	-0,121635	22,300000	52,140000
2,070941	-109,481450	241,443	-0,121856	22,300000	52,140000
2,067942	-110,335364	241,593	-0,122217	22,300000	52,140000
2,064921	-114,474184	241,744	-0,123963	22,300000	52,140000
2,061941	-114,105080	241,894	-0,123808	22,300000	52,140000
2,058910	-118,094639	242,044	-0,125491	22,300000	52,140000
2,055932	-120,337030	242,194	-0,126438	22,300000	52,140000
2,052931	-120,657537	242,344	-0,126573	22,300000	52,140000
2,049950	-124,216667	242,495	-0,128075	22,300000	52,140000
2,046945	-125,282324	242,645	-0,128524	22,300000	52,140000
2,043974	-125,917552	242,795	-0,128792	22,300000	52,140000
2,040881	-129,460484	242,945	-0,130288	22,300000	52,140000
2,037939	-129,930252	243,095	-0,130486	22,300000	52,140000
2,034927	-131,614938	243,245	-0,131197	22,300000	52,140000
2,031910	-135,518874	243,396	-0,132844	22,300000	52,140000
2,028914	-136,146003	243,546	-0,133109	22,300000	52,140000
2,025897	-139,429752	243,696	-0,134495	22,300000	52,140000
2,022922	-139,288590	243,846	-0,134435	22,300000	52,140000
2,019933	-143,443609	243,996	-0,136188	22,300000	52,140000
2,016976	-145,213918	244,146	-0,136936	22,300000	52,140000
2,013934	-144,383146	244,296	-0,136585	22,300000	52,140000
2,010893	-147,668052	244,446	-0,137971	22,300000	52,140000
2,007971	-150,935602	244,596	-0,139350	22,290000	52,160000
2,004949	-150,795598	244,746	-0,139291	22,290000	52,160000
2,001948	-154,745816	244,896	-0,140958	22,290000	52,160000
1,998917	-154,596555	245,046	-0,140895	22,290000	52,160000
1,995898	-156,336780	245,196	-0,141629	22,290000	52,160000
1,992951	-159,126463	245,346	-0,142807	22,290000	52,160000
1,989920	-162,897336	245,496	-0,144398	22,290000	52,160000
1,986908	-162,873038	245,646	-0,144388	22,290000	52,160000
1,983930	-166,752675	245,797	-0,146025	22,290000	52,160000
1,980936	-167,011858	245,947	-0,146134	22,290000	52,160000
1,977911	-168,384136	246,098	-0,146713	22,290000	52,160000
1,974914	-170,891495	246,248	-0,147771	22,290000	52,160000
1,971937	-173,924161	246,398	-0,149051	22,290000	52,160000
1,968859	-174,747991	246,549	-0,149399	22,290000	52,200000
1,965921	-178,643828	246,699	-0,151043	22,290000	52,200000
1,962914	-178,760691	246,849	-0,151092	22,290000	52,200000
1,959965	-182,876370	247,001	-0,152829	22,290000	52,200000
1,956958	-182,499167	247,152	-0,152670	22,290000	52,200000
1,953890	-184,897762	247,302	-0,153682	22,290000	52,200000
1,950958	-186,637987	247,452	-0,154417	22,290000	52,200000
1,947935	-188,652436	247,602	-0,155267	22,290000	52,200000
1,944905	-192,845638	247,752	-0,157036	22,290000	52,200000
1,941941	-193,433427	247,903	-0,157284	22,290000	52,200000
1,938971	-195,212992	248,053	-0,158035	22,290000	52,200000
1,935960	-199,460576	248,204	-0,159828	22,290000	52,200000
1,932838	-199,100729	248,354	-0,159676	22,290000	52,200000
1,929923	-201,271383	248,504	-0,160592	22,290000	52,200000
1,926942	-203,348313	248,654	-0,161468	22,290000	52,225000
1,923881	-206,319655	248,804	-0,162722	22,290000	52,225000
1,920918	-206,876203	248,954	-0,162957	22,290000	52,225000
1,917922	-209,940110	249,104	-0,164250	22,290000	52,225000
1,914909	-211,351729	249,254	-0,164846	22,290000	52,225000
1,912005	-215,466251	249,404	-0,166582	22,290000	52,225000
1,908952	-215,207068	249,554	-0,166473	22,290000	52,225000
1,905882	-219,690693	249,704	-0,168365	22,290000	52,225000
1,902930	-219,487050	249,854	-0,168279	22,290000	52,225000
1,899923	-222,167969	250,004	-0,169410	22,290000	52,225000
1,896983	-223,453467	250,154	-0,169953	22,290000	52,225000
1,893943	-226,188768	250,305	-0,171107	22,290000	52,225000
1,890925	-229,794181	250,455	-0,172628	22,290000	52,225000
1,887953	-231,541349	250,605	-0,173366	22,290000	52,225000
1,885008	-233,681918	250,755	-0,174269	22,290000	52,225000
1,881968	-233,493317	250,906	-0,174189	22,290000	52,225000
1,878950	-236,487800	251,056	-0,175453	22,290000	52,225000
1,875887	-237,898262	251,206	-0,176048	22,290000	52,225000
1,872930	-239,646586	251,357	-0,176786	22,290000	52,225000
1,869903	-244,388237	251,507	-0,178787	22,290000	52,225000
1,866917	-244,035332	251,658	-0,178638	22,290000	52,225000
1,863875	-245,798699	251,809	-0,179382	22,290000	52,225000
1,860971	-249,177327	251,960	-0,180808	22,290000	52,225000
1,857990	-249,709577	252,110	-0,181033	22,290000	52,225000
1,854929	-252,344213	252,261	-0,182145	22,290000	52,225000
1,851911	-254,013857	252,411	-0,182849	22,290000	52,225000
1,848989	-257,015283	252,561	-0,184116	22,300000	52,155000
1,845949	-260,362670	252,711	-0,185528	22,300000	52,155000
1,842967	-259,954227	252,861	-0,185356	22,300000	52,155000
1,839940	-264,273549	253,011	-0,187179	22,300000	52,155000
1,836951	-264,978201	253,162	-0,187476	22,300000	52,155000
1,833876	-268,035166	253,313	-0,188766	22,300000	52,155000
1,830983	-268,184427	253,463	-0,188829	22,300000	52,155000
1,827899	-271,868520	253,613	-0,190384	22,300000	52,155000
1,825025	-271,868520	253,764	-0,190384	22,300000	52,155000
1,821938	-275,974943	253,914	-0,192117	22,300000	52,155000
1,818933	-277,982450	254,064	-0,192964	22,300000	52,155000
1,815895	-280,026983	254,214	-0,193827	22,300000	52,155000
1,812991	-279,667136	254,365	-0,193675	22,300000	52,155000
1,809955	-283,719176	254,516	-0,195385	22,300000	52,155000
1,806894	-283,538674	254,666	-0,195309	22,300000	52,155000
1,803890	-286,086530	254,816	-0,196384	22,300000	52,155000
1,800882	-286,673162	254,966	-0,196631	22,300000	52,155000
1,797946	-289,394578	255,116	-0,197780	22,300000	52,155000
1,794941	-290,695118	255,266	-0,198329	22,300000	52,155000
1,791904	-294,566656	255,416	-0,199962	22,300000	52,155000
1,788935	-294,323673	255,566	-0,199860	22,300000	52,155000
1,785934	-297,467417	255,716	-0,201187	22,300000	52,155000
1,782914	-300,601905	255,867	-0,202509	22,300000	52,155000
1,779967	-300,539424	256,017	-0,202483	22,300000	52,155000
1,776951	-301,378295	256,167	-0,202837	22,300000	52,155000
1,773962	-303,447127	256,317	-0,203710	22,300000	52,155000
1,770937	-305,681418	256,468	-0,204653	22,300000	52,155000
1,767946	-308,400520	256,618	-0,205800	22,300000	52,195000
1,764998	-311,700468	256,768	-0,207193	22,300000	52,195000
1,761947	-312,672403	256,918	-0,207603	22,300000	52,195000
1,758973	-313,463835	257,068	-0,207937	22,300000	52,195000
1,755961	-316,302114	257,218	-0,209135	22,300000	52,195000
1,752913	-316,826264	257,369	-0,209356	22,300000	52,195000
1,749994	-318,786332	257,519	-0,210183	22,300000	52,195000
1,746909	-322,862670	257,670	-0,211903	22,300000	52,195000
1,743946	-324,657277	257,820	-0,212661	22,300000	52,195000
1,740969	-324,140070	257,970	-0,212442	22,300000	52,195000
1,737961	-326,985291	258,120	-0,213643	22,300000	52,195000
1,734963	-328,098388	258,270	-0,214113	22,300000	52,195000
1,731976	-332,259192	258,421	-0,215869	22,300000	52,195000
1,728997	-334,164877	258,572	-0,216673	22,300000	52,205000
1,725947	-333,897595	258,723	-0,216560	22,300000	52,205000
1,722974	-337,699709	258,873	-0,218165	22,300000	52,205000
1,719954	-339,824080	259,023	-0,219061	22,300000	52,205000
1,716922	-340,834197	259,173	-0,219487	22,300000	52,205000
1,713956	-343,986041	259,324	-0,220817	22,300000	52,205000
1,710925	-345,247242	259,474	-0,221350	22,300000	52,205000
1,707945	-344,800615	259,624	-0,221161	22,300000	52,205000
1,704968	-346,800022	259,774	-0,222005	22,300000	52,205000
1,701953	-348,640912	259,924	-0,222782	22,300000	52,205000
1,698978	-350,616021	260,074	-0,223615	22,300000	52,205000
1,695993	-354,528057	260,224	-0,225266	22,300000	52,205000
1,692914	-355,828597	260,374	-0,225815	22,300000	52,205000
1,689991	-355,781157	260,524	-0,225795	22,300000	52,205000
1,686907	-357,435760	260,674	-0,226493	22,310000	52,165000
1,683967	-358,798782	260,824	-0,227068	22,310000	52,165000
1,680967	-360,680169	260,974	-0,227862	22,310000	52,165000
1,677962	-364,073839	261,125	-0,229294	22,310000	52,165000
1,674976	-364,482283	261,275	-0,229467	22,310000	52,165000
1,671914	-365,759682	261,425	-0,230006	22,310000	52,165000
1,668947	-369,153353	261,575	-0,231438	22,310000	52,165000
1,665946	-371,433927	261,725	-0,232400	22,310000	52,165000
1,663003	-371,833114	261,876	-0,232569	22,310000	52,165000
1,659911	-372,962409	262,026	-0,233045	22,310000	52,165000
1,656954	-375,541506	262,176	-0,234134	22,310000	52,165000
1,653967	-378,895836	262,326	-0,235549	22,310000	52,165000
1,650944	-378,511691	262,477	-0,235387	22,310000	52,165000
1,647923	-382,744233	262,628	-0,237173	22,310000	52,180000
1,644972	-382,399428	262,779	-0,237028	22,310000	52,180000
1,641934	-384,115355	262,929	-0,237752	22,310000	52,180000
1,638966	-385,903019	263,079	-0,238506	22,310000	52,180000
1,635984	-387,760108	263,229	-0,239290	22,310000	52,180000
1,633045	-391,780908	263,380	-0,240987	22,310000	52,180000
1,630010	-393,647253	263,530	-0,241774	22,310000	52,180000
1,626941	-393,302447	263,681	-0,241629	22,310000	52,180000
1,624039	-394,760349	263,831	-0,242244	22,310000	52,180000
1,620924	-397,024724	263,982	-0,243200	22,310000	52,180000
1,617974	-400,270290	264,132	-0,244569	22,310000	52,180000
1,614972	-402,856330	264,282	-0,245661	22,310000	52,180000
1,612006	-402,856330	264,432	-0,245661	22,310000	52,180000
1,608990	-404,815240	264,582	-0,246487	22,300000	52,180000
1,605943	-406,555465	264,732	-0,247222	22,300000	52,180000
1,602951	-408,311889	264,882	-0,247963	22,300000	52,180000
1,599989	-411,618780	265,032	-0,249358	22,300000	52,180000
1,596919	-412,285249	265,182	-0,249640	22,300000	52,180000
1,593962	-415,624537	265,333	-0,251049	22,300000	52,180000
1,590974	-418,344796	265,483	-0,252197	22,300000	52,180000
1,587938	-418,320498	265,633	-0,252187	22,300000	52,180000
1,584937	-422,091371	265,783	-0,253778	22,300000	52,180000
1,581937	-424,128962	265,934	-0,254638	22,300000	52,180000
1,578975	-423,869779	266,085	-0,254528	22,300000	52,180000
1,575955	-428,094222	266,235	-0,256311	22,300000	52,180000
1,573011	-429,771966	266,385	-0,257019	22,300000	52,180000
1,570007	-429,497741	266,536	-0,256903	22,300000	52,180000
1,567006	-433,024474	266,687	-0,258392	22,290000	52,175000
1,563946	-432,899511	266,838	-0,258339	22,290000	52,175000
1,561023	-436,951551	266,988	-0,260049	22,290000	52,175000
1,557955	-436,795348	267,138	-0,259983	22,290000	52,175000
1,554935	-437,954726	267,288	-0,260472	22,290000	52,175000
1,551951	-440,839288	267,438	-0,261689	22,290000	52,175000
1,548957	-442,587613	267,588	-0,262427	22,290000	52,175000
1,545954	-443,370946	267,739	-0,262758	22,290000	52,175000
1,542971	-446,859495	267,890	-0,264230	22,290000	52,175000
1,539941	-446,639653	268,040	-0,264137	22,290000	52,175000
1,536973	-449,884062	268,190	-0,265506	22,290000	52,175000
1,533977	-449,813481	268,340	-0,265477	22,290000	52,175000
1,530920	-452,909786	268,490	-0,266783	22,290000	52,175000
1,527984	-452,901687	268,640	-0,266780	22,310000	52,180000
1,524988	-456,232875	268,790	-0,268186	22,310000	52,180000
1,521942	-456,562639	268,941	-0,268325	22,310000	52,180000
1,519009	-458,999417	269,091	-0,269353	22,310000	52,180000
1,515990	-460,136811	269,241	-0,269833	22,310000	52,180000
1,513023	-462,558547	269,392	-0,270855	22,310000	52,180000
1,509944	-464,016449	269,542	-0,271470	22,310000	52,180000
1,506929	-466,516865	269,692	-0,272525	22,310000	52,180000
1,503991	-469,933677	269,843	-0,273967	22,310000	52,180000
1,500991	-469,628212	269,993	-0,273838	22,310000	52,180000
1,498014	-470,772549	270,143	-0,274321	22,310000	52,180000
1,494934	-473,163044	270,293	-0,275330	22,310000	52,180000
1,492001	-475,952727	270,443	-0,276507	22,310000	52,180000
1,488973	-475,812722	270,593	-0,276448	22,290000	52,160000
1,485916	-479,754841	270,743	-0,278112	22,290000	52,160000
1,482942	-479,268874	270,894	-0,277907	22,290000	52,160000
1,479965	-482,608162	271,044	-0,279316	22,290000	52,160000
1,476922	-482,224017	271,194	-0,279154	22,290000	52,160000
1,473945	-486,706485	271,344	-0,281045	22,290000	52,160000
1,470911	-486,479700	271,494	-0,280950	22,290000	52,160000
1,467971	-487,499074	271,644	-0,281380	22,290000	52,160000
1,464977	-489,364262	271,794	-0,282167	22,290000	52,160000
1,461965	-492,867854	271,944	-0,283646	22,290000	52,160000
1,458955	-493,298282	272,094	-0,283827	22,290000	52,160000
1,455960	-494,074672	272,244	-0,284155	22,290000	52,160000
1,453020	-495,979201	272,394	-0,284958	22,290000	52,160000
1,450013	-497,648845	272,544	-0,285663	22,290000	52,160000
1,446977	-499,514033	272,694	-0,286450	22,290000	52,160000
1,444032	-502,751500	272,844	-0,287816	22,290000	52,160000
1,440968	-504,726609	272,994	-0,288650	22,290000	52,160000
1,438023	-504,326264	273,145	-0,288481	22,290000	52,160000
1,434983	-508,198960	273,295	-0,290115	22,290000	52,160000
1,431953	-509,766782	273,445	-0,290777	22,290000	52,160000
1,428976	-509,421977	273,595	-0,290631	22,290000	52,160000
1,425989	-512,846888	273,745	-0,292077	22,290000	52,160000
1,423003	-512,267199	273,896	-0,291832	22,290000	52,160000
1,419981	-513,873204	274,046	-0,292510	22,290000	52,160000
1,416969	-515,386645	274,196	-0,293148	22,290000	52,160000
1,413951	-518,012024	274,346	-0,294256	22,290000	52,160000
1,411010	-520,348138	274,497	-0,295242	22,290000	52,160000
1,407950	-522,761774	274,647	-0,296261	22,290000	52,190000
1,404969	-524,861846	274,798	-0,297147	22,290000	52,190000
1,401954	-524,776224	274,948	-0,297111	22,290000	52,190000
1,398986	-525,795598	275,098	-0,297541	22,290000	52,190000
1,395969	-528,788924	275,248	-0,298804	22,290000	52,190000
1,393001	-529,542173	275,398	-0,299122	22,290000	52,190000
1,389889	-532,284416	275,548	-0,300279	22,290000	52,190000
1,386948	-533,319989	275,698	-0,300716	22,290000	52,190000
1,384033	-534,776733	275,848	-0,301331	22,290000	52,190000
1,380911	-536,062232	275,998	-0,301874	22,290000	52,190000
1,378025	-538,578847	276,149	-0,302936	22,290000	52,190000
1,374978	-541,016782	276,300	-0,303964	22,290000	52,190000
1,371939	-541,737633	276,450	-0,304269	22,290000	52,190000
1,368927	-544,975100	276,600	-0,305635	22,310000	52,195000
1,365977	-545,382387	276,750	-0,305807	22,310000	52,195000
1,363036	-549,135904	276,900	-0,307391	22,310000	52,195000
1,359989	-550,516282	277,050	-0,307973	22,310000	52,195000
1,356948	-552,585114	277,200	-0,308846	22,310000	52,195000
1,353975	-554,144837	277,351	-0,309504	22,310000	52,195000
1,351005	-555,469676	277,501	-0,310063	22,310000	52,195000
1,347974	-555,517115	277,651	-0,310083	22,310000	52,195000
1,344980	-556,865096	277,801	-0,310652	22,310000	52,195000
1,342007	-558,605321	277,951	-0,311387	22,310000	52,195000
1,339000	-562,265116	278,101	-0,312931	22,310000	52,195000
1,336009	-561,465584	278,251	-0,312594	22,310000	52,195000
1,332925	-563,182668	278,402	-0,313318	22,310000	52,195000
1,329991	-565,062898	278,552	-0,314112	22,300000	52,165000
1,326904	-567,837539	278,702	-0,315283	22,300000	52,165000
1,324003	-570,848221	278,852	-0,316553	22,300000	52,165000
1,320961	-572,046940	279,003	-0,317059	22,300000	52,165000
1,317972	-571,623454	279,154	-0,316880	22,300000	52,165000
1,314981	-575,112004	279,304	-0,318353	22,300000	52,165000
1,311966	-576,075839	279,455	-0,318759	22,300000	52,165000
1,308981	-578,325172	279,605	-0,319708	22,300000	52,165000
1,306049	-577,909786	279,755	-0,319533	22,300000	52,165000
1,302986	-580,864929	279,905	-0,320780	22,300000	52,165000
1,300002	-581,037332	280,055	-0,320853	22,300000	52,165000
1,296942	-583,294765	280,205	-0,321806	22,300000	52,165000
1,293996	-583,639570	280,355	-0,321951	22,300000	52,165000
1,291009	-585,309214	280,506	-0,322656	22,300000	52,165000
1,287991	-588,985208	280,656	-0,324207	22,290000	52,135000
1,284944	-589,087030	280,806	-0,324250	22,290000	52,135000
1,281942	-591,806132	280,956	-0,325397	22,290000	52,135000
1,278955	-591,108422	281,106	-0,325103	22,290000	52,135000
1,275937	-592,017874	281,257	-0,325487	22,290000	52,135000
1,273023	-593,656278	281,407	-0,326178	22,290000	52,135000
1,269930	-596,587122	281,558	-0,327415	22,290000	52,135000
1,266950	-595,239142	281,708	-0,326846	22,290000	52,135000
1,263921	-597,018707	281,858	-0,327597	22,290000	52,135000
1,260968	-597,936260	282,008	-0,327984	22,290000	52,135000
1,257987	-599,197460	282,158	-0,328517	22,290000	52,135000
1,254986	-602,551790	282,308	-0,329932	22,290000	52,135000
1,252052	-603,915969	282,458	-0,330508	22,290000	52,135000
1,248990	-603,006517	282,608	-0,330124	22,300000	52,180000
1,245984	-604,158953	282,758	-0,330610	22,300000	52,180000
1,243000	-605,037165	282,908	-0,330981	22,300000	52,180000
1,239997	-608,320914	283,058	-0,332367	22,300000	52,180000
1,237014	-609,598313	283,208	-0,332906	22,300000	52,180000
1,234029	-611,134895	283,359	-0,333554	22,300000	52,180000
1,230969	-610,523965	283,509	-0,333296	22,300000	52,180000
1,228043	-613,509192	283,659	-0,334556	22,300000	52,180000
1,224931	-612,929502	283,809	-0,334312	22,300000	52,180000
1,222021	-615,994566	283,960	-0,335605	22,300000	52,180000
1,218955	-616,009608	284,110	-0,335611	22,300000	52,180000
1,215988	-618,173319	284,261	-0,336524	22,300000	52,180000
1,213000	-618,949709	284,411	-0,336852	22,300000	52,180000
1,209967	-620,509432	284,562	-0,337510	22,300000	52,165000
1,206983	-621,818072	284,712	-0,338062	22,300000	52,165000
1,203925	-624,765116	284,863	-0,339306	22,300000	52,165000
1,201029	-624,648252	285,013	-0,339257	22,300000	52,165000
1,197930	-626,960067	285,163	-0,340232	22,300000	52,165000
1,194971	-629,890912	285,313	-0,341469	22,300000	52,165000
1,191928	-630,879045	285,463	-0,341886	22,300000	52,165000
1,188932	-632,548689	285,614	-0,342591	22,300000	52,165000
1,185985	-632,062722	285,764	-0,342386	22,300000	52,165000
1,182960	-633,598147	285,914	-0,343034	22,300000	52,165000
1,179944	-635,840538	286,064	-0,343980	22,300000	52,165000
1,176983	-636,922393	286,215	-0,344437	22,300000	52,165000
1,173987	-638,889403	286,365	-0,345267	22,300000	52,165000
1,170948	-639,845138	286,515	-0,345670	22,300000	52,165000
1,167909	-643,576672	286,665	-0,347245	22,290000	52,150000
1,165030	-645,088955	286,815	-0,347883	22,290000	52,150000
1,162017	-644,877212	286,965	-0,347793	22,290000	52,150000
1,158993	-648,020957	287,116	-0,349120	22,290000	52,150000
1,155977	-647,612513	287,266	-0,348948	22,290000	52,150000
1,153052	-648,521966	287,416	-0,349332	22,290000	52,150000
1,149972	-650,152270	287,566	-0,350020	22,290000	52,150000
1,146945	-652,064897	287,716	-0,350827	22,290000	52,150000
1,144006	-655,387987	287,866	-0,352229	22,290000	52,150000
1,140950	-655,772132	288,017	-0,352391	22,290000	52,150000
1,137948	-657,308714	288,167	-0,353040	22,290000	52,150000
1,134958	-657,707901	288,317	-0,353208	22,290000	52,150000
1,131938	-659,957235	288,468	-0,354157	22,290000	52,150000
1,128940	-659,205143	288,619	-0,353840	22,300000	52,180000
1,125974	-660,177077	288,769	-0,354250	22,300000	52,180000
1,122969	-662,771216	288,919	-0,355345	22,300000	52,180000
1,119978	-663,327764	289,069	-0,355580	22,300000	52,180000
1,116954	-664,033573	289,220	-0,355877	22,300000	52,180000
1,113959	-666,557131	289,370	-0,356942	22,300000	52,180000
1,111003	-664,880545	289,520	-0,356235	22,300000	52,180000
1,108025	-666,972517	289,670	-0,357118	22,300000	52,180000
1,104995	-665,059890	289,821	-0,356311	22,300000	52,180000
1,101956	-665,389653	289,971	-0,356450	22,300000	52,180000
1,098981	-667,098637	290,121	-0,357171	22,300000	52,180000
1,096010	-669,558557	290,271	-0,358209	22,300000	52,180000
1,093025	-668,735884	290,421	-0,357862	22,300000	52,180000
1,089959	-671,784749	290,571	-0,359148	22,290000	52,200000
1,087001	-671,229358	290,721	-0,358914	22,290000	52,200000
1,083984	-672,067073	290,871	-0,359268	22,290000	52,200000
1,081023	-673,509932	291,022	-0,359876	22,290000	52,200000
1,077916	-674,496908	291,172	-0,360293	22,290000	52,200000
1,074998	-677,256507	291,322	-0,361458	22,290000	52,200000
1,072018	-677,890579	291,472	-0,361725	22,290000	52,200000
1,068970	-678,432085	291,622	-0,361954	22,290000	52,200000
1,065989	-679,788165	291,772	-0,362526	22,290000	52,200000
1,062961	-679,622704	291,923	-0,362456	22,290000	52,200000
1,059954	-681,183584	292,073	-0,363115	22,290000	52,200000
1,056912	-681,958818	292,223	-0,363442	22,290000	52,200000
1,054005	-684,702218	292,373	-0,364600	22,290000	52,200000
1,050957	-683,118196	292,523	-0,363931	22,290000	52,200000
1,047920	-684,615438	292,673	-0,364563	22,300000	52,195000
1,045021	-684,913961	292,824	-0,364689	22,300000	52,195000
1,042028	-685,948376	292,974	-0,365125	22,300000	52,195000
1,038982	-686,293182	293,124	-0,365271	22,300000	52,195000
1,036006	-688,824839	293,274	-0,366339	22,300000	52,195000
1,033024	-688,503175	293,424	-0,366204	22,300000	52,195000
1,029997	-690,839288	293,574	-0,367189	22,300000	52,195000
1,027028	-689,593130	293,724	-0,366664	22,300000	52,195000
1,023964	-689,734292	293,874	-0,366723	22,300000	52,195000
1,021029	-692,375870	294,024	-0,367838	22,300000	52,195000
1,018009	-690,909869	294,174	-0,367219	22,300000	52,195000
1,014932	-691,474517	294,324	-0,367458	22,300000	52,195000
1,011999	-691,881804	294,475	-0,367629	22,300000	52,195000
1,009014	-694,609005	294,626	-0,368780	22,300000	52,195000
1,005996	-694,467843	294,776	-0,368721	22,300000	52,195000
1,002932	-696,718333	294,927	-0,369670	22,300000	52,195000
1,000013	-695,722101	295,077	-0,369250	22,300000	52,195000
0,996956	-696,436010	295,227	-0,369551	22,300000	52,195000
0,994005	-699,547356	295,378	-0,370864	22,300000	52,195000
0,990976	-700,503092	295,528	-0,371268	22,300000	52,195000
0,987984	-699,869020	295,678	-0,371000	22,300000	52,195000
0,984991	-701,530565	295,828	-0,371701	22,300000	52,195000
0,982028	-701,404445	295,978	-0,371648	22,300000	52,195000
0,978934	-701,341963	296,128	-0,371622	22,300000	52,195000
0,976025	-702,134553	296,278	-0,371956	22,300000	52,195000
0,972994	-702,533740	296,429	-0,372125	22,300000	52,195000
0,970082	-702,791765	296,580	-0,372233	22,290000	52,160000
0,966989	-703,074089	296,730	-0,372353	22,290000	52,160000
0,963966	-704,783074	296,880	-0,373074	22,290000	52,160000
0,961001	-705,527066	297,030	-0,373388	22,290000	52,160000
0,957968	-704,297106	297,180	-0,372869	22,290000	52,160000
0,954956	-706,640162	297,331	-0,373857	22,290000	52,160000
0,951989	-705,065397	297,481	-0,373193	22,290000	52,160000
0,948993	-704,666210	297,632	-0,373024	22,290000	52,160000
0,946076	-705,746908	297,784	-0,373480	22,290000	52,160000
0,942993	-704,673152	297,935	-0,373027	22,290000	52,160000
0,940008	-703,027807	298,085	-0,372333	22,290000	52,160000
0,936972	-705,119779	298,235	-0,373216	22,290000	52,160000
0,933964	-705,253999	298,385	-0,373272	22,290000	52,160000
0,931038	-703,277733	298,535	-0,372438	22,290000	52,160000
0,928004	-701,044598	298,685	-0,371496	22,300000	52,205000
0,924990	-699,077588	298,835	-0,370666	22,300000	52,205000
0,921909	-696,780815	298,985	-0,369697	22,300000	52,205000
0,918919	-695,181752	299,135	-0,369022	22,300000	52,205000
0,915984	-694,617104	299,285	-0,368784	22,300000	52,205000
0,913027	-692,822497	299,436	-0,368026	22,300000	52,205000
0,909986	-689,576931	299,586	-0,366657	22,300000	52,205000
0,907030	-686,810390	299,736	-0,365489	22,300000	52,205000
0,904016	-681,794515	299,887	-0,363373	22,300000	52,205000
0,900958	-673,541173	300,037	-0,359890	22,300000	52,205000
0,898014	-666,141745	300,188	-0,356767	22,300000	52,205000
0,895049	-647,055965	300,338	-0,348713	22,300000	52,205000
0,891978	-1,238059	300,489	-0,076178	22,300000	52,205000
0,888964	-0,595888	300,640	-0,075907	22,300000	52,180000
0,886015	-0,510265	300,790	-0,075871	22,300000	52,180000
0,882947	-0,392245	300,941	-0,075821	22,300000	52,180000
0,879981	-0,031241	301,091	-0,075668	22,300000	52,180000
0,876988	-0,227942	301,242	-0,075751	22,300000	52,180000
0,873980	-0,086780	301,393	-0,075692	22,300000	52,180000
0,870987	-0,195544	301,543	-0,075738	22,300000	52,180000
0,868030	0,077523	301,693	-0,075623	22,300000	52,180000
0,864950	-0,023141	301,844	-0,075665	22,300000	52,180000
0,861947	-0,055539	301,994	-0,075679	22,300000	52,180000
0,858976	-0,227942	302,145	-0,075751	22,300000	52,180000
0,856023	0,093722	302,295	-0,075616	22,300000	52,180000
0,852943	-0,023141	302,445	-0,075665	22,300000	52,180000
0,849973	0,000000	302,595	-0,075655	22,300000	52,180000
0,846944	0,109921	302,745	-0,075609	22,300000	52,180000
0,843934	0,023141	302,895	-0,075646	22,300000	52,180000
0,840916	0,077523	303,046	-0,075623	22,300000	52,180000
0,837988	-0,039340	303,196	-0,075672	22,300000	52,180000
0,834946	0,109921	303,347	-0,075609	22,300000	52,180000
0,831982	-0,016199	303,498	-0,075662	22,300000	52,180000
0,829025	-0,211743	303,648	-0,075745	22,300000	52,180000
0,825992	0,172403	303,798	-0,075583	22,300000	52,180000
0,822979	-0,101822	303,948	-0,075698	22,300000	52,180000
0,819966	0,062481	304,098	-0,075629	22,300000	52,180000
0,816982	0,000000	304,248	-0,075655	22,300000	52,180000
0,813979	0,180502	304,398	-0,075579	22,300000	52,180000
0,811039	-0,195544	304,548	-0,075738	22,290000	52,190000
0,807993	0,392245	304,698	-0,075490	22,290000	52,190000
0,805035	-0,118021	304,848	-0,075705	22,290000	52,190000
0,801972	0,054382	304,999	-0,075632	22,290000	52,190000
0,798990	0,093722	305,149	-0,075616	22,290000	52,190000
0,796050	-0,031241	305,299	-0,075668	22,290000	52,190000
0,792942	0,085623	305,449	-0,075619	22,290000	52,190000
0,789983	0,180502	305,600	-0,075579	22,290000	52,190000
0,787017	0,133062	305,750	-0,075599	22,290000	52,190000
0,783912	0,297366	305,900	-0,075530	22,290000	52,190000
0,780910	0,046283	306,050	-0,075636	22,290000	52,190000
0,777963	-0,023141	306,201	-0,075665	22,290000	52,190000
0,774989	0,109921	306,351	-0,075609	22,290000	52,190000
0,772009	0,148104	306,501	-0,075593	22,290000	52,190000
0,768974	0,187444	306,652	-0,075576	22,290000	52,175000
0,765995	0,141162	306,803	-0,075596	22,290000	52,175000
0,762990	0,000000	306,954	-0,075655	22,290000	52,175000
0,759955	0,124963	307,104	-0,075603	22,290000	52,175000
0,756985	-0,070581	307,254	-0,075685	22,290000	52,175000
0,753903	0,320507	307,404	-0,075520	22,290000	52,175000
0,751005	0,376046	307,555	-0,075497	22,290000	52,175000
0,747989	0,266125	307,705	-0,075543	22,290000	52,175000
0,744989	0,203643	307,855	-0,075569	22,290000	52,175000
0,741939	0,015042	308,006	-0,075649	22,290000	52,175000
0,739015	0,399187	308,156	-0,075487	22,290000	52,175000
0,735988	0,116864	308,306	-0,075606	22,290000	52,175000
0,732985	-0,070581	308,456	-0,075685	22,290000	52,175000
0,730015	-0,313564	308,606	-0,075788	22,300000	52,205000
0,726999	0,116864	308,757	-0,075606	22,300000	52,205000
0,723956	-0,157361	308,908	-0,075722	22,300000	52,205000
0,721008	-0,165460	309,059	-0,075725	22,300000	52,205000
0,718030	0,046283	309,210	-0,075636	22,300000	52,205000
0,714957	0,344805	309,360	-0,075510	22,300000	52,205000
0,712016	0,077523	309,510	-0,075623	22,300000	52,205000
0,708937	0,023141	309,660	-0,075646	22,300000	52,205000
0,706012	-0,023141	309,810	-0,075665	22,300000	52,205000
0,703021	0,062481	309,960	-0,075629	22,300000	52,205000
0,700027	-0,078680	310,110	-0,075688	22,300000	52,205000
0,697013	0,328606	310,261	-0,075517	22,300000	52,205000
0,694012	-0,094879	310,411	-0,075695	22,300000	52,205000
0,690988	0,124963	310,561	-0,075603	22,310000	52,195000
0,687921	0,313564	310,711	-0,075523	22,310000	52,195000
0,684989	0,109921	310,862	-0,075609	22,310000	52,195000
0,681963	0,211743	311,012	-0,075566	22,310000	52,195000
0,678944	0,038183	311,162	-0,075639	22,310000	52,195000
0,675982	-0,039340	311,313	-0,075672	22,310000	52,195000
0,672966	0,297366	311,464	-0,075530	22,310000	52,195000
0,670045	0,156204	311,614	-0,075589	22,310000	52,195000
