Quasi static measurement routine
Tip parameters (shape,radius, material...) 
09.09.2022

Piezo position[nm]	MEMS displ.[nm]	Time[ms]	Cap [pf]	Temp [°C]	Rh [%]
eoh
0,492052	-0,086780	0,188	-0,075798	22,560000	53,805000
0,495121	0,039340	0,338	-0,075745	22,560000	53,805000
0,498118	-0,023141	0,488	-0,075771	22,560000	53,805000
0,501023	-0,023141	0,638	-0,075771	22,560000	53,805000
0,504126	0,188602	0,788	-0,075682	22,560000	53,805000
0,507093	0,000000	0,940	-0,075761	22,560000	53,805000
0,510092	-0,180502	1,090	-0,075837	22,560000	53,805000
0,513105	0,023141	1,240	-0,075751	22,560000	53,805000
0,516080	0,101822	1,390	-0,075718	22,550000	53,815000
0,519095	0,101822	1,540	-0,075718	22,550000	53,815000
0,522070	0,156204	1,690	-0,075695	22,550000	53,815000
0,525089	0,031241	1,840	-0,075748	22,550000	53,815000
0,528134	0,078680	1,990	-0,075728	22,550000	53,815000
0,531104	-0,195544	2,141	-0,075844	22,550000	53,815000
0,534110	-0,047440	2,292	-0,075781	22,550000	53,815000
0,537078	0,055539	2,443	-0,075738	22,550000	53,815000
0,540067	0,133062	2,593	-0,075705	22,550000	53,815000
0,543059	0,172403	2,744	-0,075688	22,550000	53,815000
0,546106	0,039340	2,894	-0,075745	22,550000	53,815000
0,549113	-0,234884	3,045	-0,075860	22,550000	53,815000
0,552054	0,116864	3,195	-0,075712	22,550000	53,815000
0,555108	-0,219842	3,346	-0,075854	22,550000	53,815000
0,558099	0,000000	3,497	-0,075761	22,550000	53,815000
0,561090	0,031241	3,647	-0,075748	22,550000	53,815000
0,564074	-0,070581	3,797	-0,075791	22,550000	53,815000
0,567084	-0,126120	3,947	-0,075814	22,550000	53,815000
0,570076	0,093722	4,098	-0,075722	22,550000	53,815000
0,573058	-0,039340	4,248	-0,075778	22,550000	53,815000
0,576063	0,116864	4,399	-0,075712	22,550000	53,815000
0,579096	0,188602	4,550	-0,075682	22,550000	53,815000
0,582064	-0,133062	4,700	-0,075817	22,550000	53,815000
0,585126	-0,008099	4,851	-0,075765	22,550000	53,815000
0,588101	0,039340	5,001	-0,075745	22,550000	53,815000
0,591140	0,016199	5,151	-0,075754	22,550000	53,815000
0,594057	-0,070581	5,302	-0,075791	22,550000	53,815000
0,597133	0,000000	5,452	-0,075761	22,540000	53,815000
0,600118	-0,078680	5,602	-0,075794	22,540000	53,815000
0,603100	-0,047440	5,752	-0,075781	22,540000	53,815000
0,606110	-0,031241	5,902	-0,075774	22,540000	53,815000
0,609086	-0,008099	6,052	-0,075765	22,540000	53,815000
0,612069	-0,062481	6,203	-0,075788	22,540000	53,815000
0,615116	-0,016199	6,354	-0,075768	22,540000	53,815000
0,618065	0,070581	6,504	-0,075731	22,540000	53,815000
0,621085	0,047440	6,655	-0,075741	22,540000	53,815000
0,624092	0,016199	6,806	-0,075754	22,540000	53,815000
0,627119	0,242984	6,957	-0,075659	22,540000	53,815000
0,630093	-0,054382	7,108	-0,075784	22,540000	53,815000
0,633072	0,047440	7,258	-0,075741	22,540000	53,815000
0,636049	0,078680	7,408	-0,075728	22,550000	53,800000
0,639119	0,116864	7,558	-0,075712	22,550000	53,800000
0,642073	-0,054382	7,708	-0,075784	22,550000	53,800000
0,645091	0,203643	7,859	-0,075675	22,550000	53,800000
0,648093	-0,180502	8,010	-0,075837	22,550000	53,800000
0,651063	0,008099	8,160	-0,075758	22,550000	53,800000
0,654040	0,031241	8,310	-0,075748	22,550000	53,800000
0,657081	-0,047440	8,460	-0,075781	22,550000	53,800000
0,660087	-0,047440	8,610	-0,075781	22,550000	53,800000
0,663067	0,055539	8,760	-0,075738	22,550000	53,800000
0,666040	0,055539	8,910	-0,075738	22,550000	53,800000
0,669088	-0,016199	9,060	-0,075768	22,550000	53,800000
0,672122	0,016199	9,210	-0,075754	22,550000	53,800000
0,675096	0,172403	9,360	-0,075688	22,550000	53,800000
0,678075	-0,031241	9,510	-0,075774	22,540000	53,800000
0,681142	0,219842	9,661	-0,075668	22,540000	53,800000
0,684091	-0,054382	9,811	-0,075784	22,540000	53,800000
0,687098	0,000000	9,961	-0,075761	22,540000	53,800000
0,690035	0,016199	10,112	-0,075754	22,540000	53,800000
0,693080	-0,016199	10,262	-0,075768	22,540000	53,800000
0,696065	0,093722	10,412	-0,075722	22,540000	53,800000
0,699081	0,039340	10,563	-0,075745	22,540000	53,800000
0,702101	0,016199	10,713	-0,075754	22,540000	53,800000
0,705126	-0,008099	10,863	-0,075765	22,540000	53,800000
0,708123	0,149261	11,014	-0,075698	22,540000	53,800000
0,711041	-0,054382	11,164	-0,075784	22,540000	53,800000
0,714090	-0,242984	11,314	-0,075864	22,540000	53,800000
0,717107	-0,093722	11,464	-0,075801	22,550000	53,800000
0,720113	0,047440	11,614	-0,075741	22,550000	53,800000
0,723053	-0,062481	11,764	-0,075788	22,550000	53,800000
0,726065	-0,039340	11,914	-0,075778	22,550000	53,800000
0,729078	0,008099	12,064	-0,075758	22,550000	53,800000
0,732067	-0,078680	12,214	-0,075794	22,550000	53,800000
0,735120	0,016199	12,364	-0,075754	22,550000	53,800000
0,738113	-0,149261	12,514	-0,075824	22,550000	53,800000
0,741115	0,109921	12,664	-0,075715	22,550000	53,800000
0,744079	-0,078680	12,815	-0,075794	22,550000	53,800000
0,747088	-0,062481	12,965	-0,075788	22,550000	53,800000
0,750061	0,085623	13,116	-0,075725	22,550000	53,800000
0,753083	0,133062	13,267	-0,075705	22,550000	53,800000
0,756073	-0,086780	13,418	-0,075798	22,560000	53,790000
0,759043	-0,039340	13,569	-0,075778	22,560000	53,790000
0,762049	0,008099	13,720	-0,075758	22,560000	53,790000
0,765086	-0,141162	13,870	-0,075821	22,560000	53,790000
0,768096	0,016199	14,020	-0,075754	22,560000	53,790000
0,771060	0,361004	14,170	-0,075609	22,560000	53,790000
0,774085	-0,101822	14,320	-0,075804	22,560000	53,790000
0,777130	0,085623	14,470	-0,075725	22,560000	53,790000
0,780115	0,078680	14,621	-0,075728	22,560000	53,790000
0,783060	-0,126120	14,772	-0,075814	22,560000	53,790000
0,786073	0,109921	14,922	-0,075715	22,560000	53,790000
0,789089	-0,023141	15,072	-0,075771	22,560000	53,790000
0,792096	-0,226785	15,222	-0,075857	22,560000	53,790000
0,795074	-0,187444	15,372	-0,075840	22,550000	53,815000
0,798056	0,321664	15,522	-0,075625	22,550000	53,815000
0,801085	-0,141162	15,672	-0,075821	22,550000	53,815000
0,804070	0,000000	15,823	-0,075761	22,550000	53,815000
0,807104	0,000000	15,973	-0,075761	22,550000	53,815000
0,810048	0,116864	16,123	-0,075712	22,550000	53,815000
0,813091	0,055539	16,273	-0,075738	22,550000	53,815000
0,816090	0,062481	16,424	-0,075735	22,550000	53,815000
0,819085	-0,023141	16,575	-0,075771	22,550000	53,815000
0,822118	-0,109921	16,725	-0,075808	22,550000	53,815000
0,825075	-0,093722	16,875	-0,075801	22,550000	53,815000
0,828070	-0,054382	17,025	-0,075784	22,550000	53,815000
0,831078	-0,016199	17,175	-0,075768	22,550000	53,815000
0,834077	0,008099	17,327	-0,075758	22,550000	53,815000
0,837124	-0,242984	17,477	-0,075864	22,550000	53,815000
0,840051	-0,274224	17,627	-0,075877	22,550000	53,815000
0,843083	-0,078680	17,778	-0,075794	22,550000	53,815000
0,846125	0,031241	17,929	-0,075748	22,550000	53,815000
0,849101	-0,118021	18,079	-0,075811	22,550000	53,815000
0,852110	-0,109921	18,229	-0,075808	22,550000	53,815000
0,855073	-0,054382	18,379	-0,075784	22,550000	53,815000
0,858104	-0,047440	18,529	-0,075781	22,550000	53,815000
0,861064	-0,039340	18,680	-0,075778	22,550000	53,815000
0,864083	-0,164303	18,830	-0,075831	22,550000	53,815000
0,867119	-0,195544	18,981	-0,075844	22,550000	53,815000
0,870067	-0,109921	19,131	-0,075808	22,550000	53,815000
0,873116	-0,008099	19,282	-0,075765	22,550000	53,815000
0,876058	-0,023141	19,432	-0,075771	22,540000	53,800000
0,879081	0,070581	19,583	-0,075731	22,540000	53,800000
0,882067	-0,008099	19,733	-0,075765	22,540000	53,800000
0,885095	-0,062481	19,883	-0,075788	22,540000	53,800000
0,888072	-0,164303	20,034	-0,075831	22,540000	53,800000
0,891083	0,093722	20,184	-0,075722	22,540000	53,800000
0,894088	0,141162	20,334	-0,075702	22,540000	53,800000
0,897083	-0,203643	20,485	-0,075847	22,540000	53,800000
0,900094	-0,187444	20,636	-0,075840	22,540000	53,800000
0,903091	-0,180502	20,786	-0,075837	22,540000	53,800000
0,906064	0,039340	20,936	-0,075745	22,540000	53,800000
0,909097	-0,062481	21,086	-0,075788	22,540000	53,800000
0,912050	0,070581	21,236	-0,075731	22,540000	53,800000
0,915132	0,031241	21,386	-0,075748	22,540000	53,800000
0,918117	-0,118021	21,536	-0,075811	22,540000	53,800000
0,921054	-0,023141	21,686	-0,075771	22,540000	53,800000
0,924113	0,039340	21,836	-0,075745	22,540000	53,800000
0,927102	-0,093722	21,986	-0,075801	22,540000	53,800000
0,930100	0,055539	22,136	-0,075738	22,540000	53,800000
0,933028	-0,203643	22,286	-0,075847	22,540000	53,800000
0,936048	0,078680	22,436	-0,075728	22,540000	53,800000
0,939092	0,000000	22,587	-0,075761	22,540000	53,800000
0,942100	-0,070581	22,739	-0,075791	22,540000	53,800000
0,945101	0,000000	22,890	-0,075761	22,540000	53,800000
0,948066	-0,016199	23,040	-0,075768	22,540000	53,800000
0,951113	-0,031241	23,190	-0,075774	22,540000	53,800000
0,954117	-0,078680	23,340	-0,075794	22,540000	53,800000
0,957062	0,039340	23,491	-0,075745	22,550000	53,775000
0,960083	0,016199	23,641	-0,075754	22,550000	53,775000
0,963080	-0,047440	23,792	-0,075781	22,550000	53,775000
0,966098	-0,039340	23,942	-0,075778	22,550000	53,775000
0,969061	-0,141162	24,092	-0,075821	22,550000	53,775000
0,972115	-0,086780	24,243	-0,075798	22,550000	53,775000
0,975086	0,141162	24,393	-0,075702	22,550000	53,775000
0,978087	0,415386	24,543	-0,075586	22,550000	53,775000
0,981093	0,101822	24,694	-0,075718	22,550000	53,775000
0,984103	0,031241	24,844	-0,075748	22,550000	53,775000
0,987033	0,047440	24,995	-0,075741	22,550000	53,775000
0,990063	-0,016199	25,145	-0,075768	22,550000	53,775000
0,993091	-0,126120	25,295	-0,075814	22,550000	53,775000
0,996113	0,109921	25,446	-0,075715	22,560000	53,790000
0,999118	-0,156204	25,596	-0,075827	22,560000	53,790000
1,002082	-0,141162	25,746	-0,075821	22,560000	53,790000
1,005081	-0,305465	25,896	-0,075890	22,560000	53,790000
1,008038	0,016199	26,046	-0,075754	22,560000	53,790000
1,011066	-0,172403	26,196	-0,075834	22,560000	53,790000
1,014064	0,109921	26,346	-0,075715	22,560000	53,790000
1,017102	0,023141	26,496	-0,075751	22,560000	53,790000
1,020086	0,047440	26,646	-0,075741	22,560000	53,790000
1,023068	-0,070581	26,796	-0,075791	22,560000	53,790000
1,026091	-0,149261	26,946	-0,075824	22,560000	53,790000
1,029108	-0,149261	27,096	-0,075824	22,560000	53,790000
1,032121	-0,203643	27,246	-0,075847	22,560000	53,790000
1,035062	-0,078680	27,396	-0,075794	22,540000	53,815000
1,038101	0,070581	27,546	-0,075731	22,540000	53,815000
1,041077	-0,078680	27,696	-0,075794	22,540000	53,815000
1,044079	0,062481	27,846	-0,075735	22,540000	53,815000
1,047075	-0,133062	27,997	-0,075817	22,540000	53,815000
1,050066	-0,101822	28,147	-0,075804	22,540000	53,815000
1,053061	-0,101822	28,297	-0,075804	22,540000	53,815000
1,056141	-0,149261	28,447	-0,075824	22,540000	53,815000
1,059091	-0,093722	28,597	-0,075801	22,540000	53,815000
1,062078	0,062481	28,748	-0,075735	22,540000	53,815000
1,065080	-0,234884	28,898	-0,075860	22,540000	53,815000
1,068086	0,070581	29,048	-0,075731	22,540000	53,815000
1,071100	0,188602	29,198	-0,075682	22,540000	53,815000
1,074100	0,016199	29,348	-0,075754	22,540000	53,815000
1,077093	0,093722	29,498	-0,075722	22,540000	53,815000
1,080084	0,031241	29,648	-0,075748	22,540000	53,815000
1,083093	-0,054382	29,798	-0,075784	22,540000	53,815000
1,086076	-0,093722	29,948	-0,075801	22,540000	53,815000
1,089063	-0,141162	30,098	-0,075821	22,540000	53,815000
1,092075	0,085623	30,248	-0,075725	22,540000	53,815000
1,095128	-0,156204	30,398	-0,075827	22,540000	53,815000
1,098131	-0,211743	30,549	-0,075851	22,540000	53,815000
1,101068	0,070581	30,700	-0,075731	22,540000	53,815000
1,104047	-0,126120	30,850	-0,075814	22,540000	53,815000
1,107075	-0,039340	31,000	-0,075778	22,540000	53,815000
1,110079	0,188602	31,150	-0,075682	22,540000	53,815000
1,113077	-0,219842	31,300	-0,075854	22,540000	53,815000
1,116115	-0,109921	31,451	-0,075808	22,550000	53,840000
1,119062	-0,203643	31,602	-0,075847	22,550000	53,840000
1,122079	-0,149261	31,752	-0,075824	22,550000	53,840000
1,125076	-0,016199	31,902	-0,075768	22,550000	53,840000
1,128107	-0,141162	32,052	-0,075821	22,550000	53,840000
1,131108	-0,126120	32,203	-0,075814	22,550000	53,840000
1,134071	0,328606	32,353	-0,075623	22,550000	53,840000
1,137108	-0,172403	32,503	-0,075834	22,550000	53,840000
1,140112	-0,329763	32,653	-0,075900	22,550000	53,840000
1,143116	0,031241	32,803	-0,075748	22,550000	53,840000
1,146095	-0,242984	32,954	-0,075864	22,550000	53,840000
1,149081	0,109921	33,104	-0,075715	22,550000	53,840000
1,152054	0,093722	33,254	-0,075722	22,550000	53,840000
1,155108	0,116864	33,405	-0,075712	22,550000	53,785000
1,158097	-0,219842	33,556	-0,075854	22,550000	53,785000
1,161058	0,047440	33,706	-0,075741	22,550000	53,785000
1,164082	-0,039340	33,856	-0,075778	22,550000	53,785000
1,167098	-0,133062	34,007	-0,075817	22,550000	53,785000
1,170076	-0,086780	34,158	-0,075798	22,550000	53,785000
1,173102	-0,031241	34,309	-0,075774	22,550000	53,785000
1,176035	0,070581	34,460	-0,075731	22,550000	53,785000
1,179045	0,062481	34,610	-0,075735	22,550000	53,785000
1,182026	-0,180502	34,761	-0,075837	22,550000	53,785000
1,185085	0,172403	34,912	-0,075688	22,550000	53,785000
1,188045	-0,187444	35,063	-0,075840	22,550000	53,785000
1,191007	-0,126120	35,213	-0,075814	22,550000	53,785000
1,194099	-0,109921	35,364	-0,075808	22,550000	53,785000
1,197066	-0,101822	35,514	-0,075804	22,550000	53,785000
1,200095	-0,234884	35,664	-0,075860	22,550000	53,785000
1,203030	-0,164303	35,815	-0,075831	22,550000	53,785000
1,206073	0,219842	35,966	-0,075668	22,550000	53,785000
1,209015	-0,109921	36,116	-0,075808	22,550000	53,785000
1,212039	-0,226785	36,266	-0,075857	22,550000	53,785000
1,215063	0,031241	36,416	-0,075748	22,550000	53,785000
1,218078	0,047440	36,566	-0,075741	22,550000	53,785000
1,221078	-0,086780	36,716	-0,075798	22,550000	53,785000
1,224067	0,016199	36,867	-0,075754	22,550000	53,785000
1,227102	-0,156204	37,018	-0,075827	22,550000	53,785000
1,230108	0,000000	37,169	-0,075761	22,550000	53,785000
1,233076	-0,126120	37,319	-0,075814	22,550000	53,785000
1,236053	-0,031241	37,469	-0,075774	22,560000	53,820000
1,239013	-0,078680	37,619	-0,075794	22,560000	53,820000
1,242062	-0,016199	37,769	-0,075768	22,560000	53,820000
1,245109	0,023141	37,920	-0,075751	22,560000	53,820000
1,248052	-0,266125	38,071	-0,075874	22,560000	53,820000
1,251090	-0,164303	38,222	-0,075831	22,560000	53,820000
1,254060	-0,195544	38,372	-0,075844	22,560000	53,820000
1,257105	-0,031241	38,522	-0,075774	22,560000	53,820000
1,260110	0,093722	38,674	-0,075722	22,560000	53,820000
1,263051	0,133062	38,824	-0,075705	22,560000	53,820000
1,266076	0,124963	38,974	-0,075708	22,560000	53,820000
1,269057	-0,126120	39,125	-0,075814	22,560000	53,820000
1,272104	-0,086780	39,275	-0,075798	22,560000	53,820000
1,275037	0,282324	39,425	-0,075642	22,560000	53,820000
1,278074	0,164303	39,575	-0,075692	22,560000	53,820000
1,281054	-0,219842	39,725	-0,075854	22,560000	53,820000
1,284004	0,023141	39,875	-0,075751	22,560000	53,820000
1,287059	-0,054382	40,025	-0,075784	22,560000	53,820000
1,290055	-0,126120	40,175	-0,075814	22,560000	53,820000
1,293081	-0,016199	40,325	-0,075768	22,560000	53,820000
1,296053	-0,149261	40,476	-0,075824	22,560000	53,820000
1,299100	-0,031241	40,626	-0,075774	22,560000	53,820000
1,302093	0,180502	40,776	-0,075685	22,560000	53,820000
1,305062	-0,180502	40,927	-0,075837	22,560000	53,820000
1,308100	-0,101822	41,077	-0,075804	22,560000	53,820000
1,311084	-0,203643	41,228	-0,075847	22,560000	53,820000
1,314064	-0,078680	41,379	-0,075794	22,560000	53,820000
1,317063	-0,008099	41,529	-0,075765	22,560000	53,820000
1,320114	-0,446627	41,680	-0,075950	22,560000	53,820000
1,323062	0,023141	41,830	-0,075751	22,560000	53,820000
1,326061	-0,203643	41,980	-0,075847	22,560000	53,820000
1,329079	0,047440	42,130	-0,075741	22,560000	53,820000
1,332126	-0,172403	42,280	-0,075834	22,560000	53,820000
1,335098	-0,008099	42,430	-0,075765	22,560000	53,820000
1,338038	-0,031241	42,580	-0,075774	22,560000	53,820000
1,341079	-0,078680	42,730	-0,075794	22,560000	53,820000
1,344062	0,055539	42,880	-0,075738	22,560000	53,820000
1,347032	0,242984	43,030	-0,075659	22,560000	53,820000
1,350062	-0,149261	43,181	-0,075824	22,560000	53,820000
1,353094	-0,109921	43,332	-0,075808	22,560000	53,820000
1,356103	0,047440	43,482	-0,075741	22,540000	53,825000
1,359089	-0,016199	43,632	-0,075768	22,540000	53,825000
1,362061	-0,070581	43,782	-0,075791	22,540000	53,825000
1,365119	-0,118021	43,933	-0,075811	22,540000	53,825000
1,368069	-0,078680	44,083	-0,075794	22,540000	53,825000
1,371048	-0,211743	44,233	-0,075851	22,540000	53,825000
1,374029	-0,149261	44,384	-0,075824	22,540000	53,825000
1,377025	-0,203643	44,534	-0,075847	22,540000	53,825000
1,380076	-0,039340	44,684	-0,075778	22,540000	53,825000
1,383089	-0,101822	44,834	-0,075804	22,540000	53,825000
1,386087	-0,219842	44,986	-0,075854	22,540000	53,825000
1,389034	-0,047440	45,136	-0,075781	22,540000	53,825000
1,392039	-0,078680	45,287	-0,075794	22,540000	53,825000
1,395039	-0,126120	45,438	-0,075814	22,550000	53,800000
1,398073	-0,195544	45,588	-0,075844	22,550000	53,800000
1,401034	-0,180502	45,738	-0,075837	22,550000	53,800000
1,404059	0,101822	45,888	-0,075718	22,550000	53,800000
1,407056	-0,126120	46,038	-0,075814	22,550000	53,800000
1,410040	0,008099	46,188	-0,075758	22,550000	53,800000
1,412998	-0,070581	46,338	-0,075791	22,550000	53,800000
1,416068	0,242984	46,489	-0,075659	22,550000	53,800000
1,419030	-0,195544	46,639	-0,075844	22,550000	53,800000
1,422048	-0,234884	46,790	-0,075860	22,550000	53,800000
1,425050	-0,242984	46,941	-0,075864	22,550000	53,800000
1,428043	-0,118021	47,091	-0,075811	22,550000	53,800000
1,431121	-0,023141	47,242	-0,075771	22,550000	53,800000
1,434021	-0,133062	47,392	-0,075817	22,560000	53,805000
1,437062	-0,118021	47,542	-0,075811	22,560000	53,805000
1,440067	-0,016199	47,693	-0,075768	22,560000	53,805000
1,443059	-0,454726	47,843	-0,075953	22,560000	53,805000
1,446110	-0,187444	47,994	-0,075840	22,560000	53,805000
1,449035	-0,047440	48,145	-0,075781	22,560000	53,805000
1,452046	-0,219842	48,295	-0,075854	22,560000	53,805000
1,455075	0,016199	48,445	-0,075754	22,560000	53,805000
1,458050	-0,054382	48,596	-0,075784	22,560000	53,805000
1,461070	-0,086780	48,747	-0,075798	22,560000	53,805000
1,464036	-0,211743	48,897	-0,075851	22,560000	53,805000
1,467044	-0,336706	49,047	-0,075903	22,560000	53,805000
1,470070	-0,031241	49,198	-0,075774	22,560000	53,805000
1,473020	0,124963	49,349	-0,075708	22,560000	53,805000
1,476059	-0,141162	49,499	-0,075821	22,550000	53,815000
1,479069	-0,054382	49,649	-0,075784	22,550000	53,815000
1,482013	-0,031241	49,800	-0,075774	22,550000	53,815000
1,485028	-0,078680	49,950	-0,075794	22,550000	53,815000
1,488028	-0,164303	50,100	-0,075831	22,550000	53,815000
1,491058	-0,149261	50,251	-0,075824	22,550000	53,815000
1,494035	0,039340	50,401	-0,075745	22,550000	53,815000
1,497081	-0,415386	50,552	-0,075937	22,550000	53,815000
1,500007	-0,274224	50,702	-0,075877	22,550000	53,815000
1,503049	0,047440	50,852	-0,075741	22,550000	53,815000
1,506075	-0,118021	51,002	-0,075811	22,550000	53,815000
1,509047	-0,259182	51,153	-0,075871	22,550000	53,815000
1,512074	-0,164303	51,304	-0,075831	22,550000	53,815000
1,515070	-0,203643	51,454	-0,075847	22,560000	53,790000
1,518089	0,234884	51,604	-0,075662	22,560000	53,790000
1,521031	-0,266125	51,754	-0,075874	22,560000	53,790000
1,524072	0,047440	51,905	-0,075741	22,560000	53,790000
1,527081	-0,242984	52,055	-0,075864	22,560000	53,790000
1,530069	-0,226785	52,206	-0,075857	22,560000	53,790000
1,533067	-0,016199	52,356	-0,075768	22,560000	53,790000
1,536050	-0,126120	52,506	-0,075814	22,560000	53,790000
1,539027	-0,101822	52,656	-0,075804	22,560000	53,790000
1,542057	0,031241	52,806	-0,075748	22,560000	53,790000
1,545066	-0,078680	52,956	-0,075794	22,560000	53,790000
1,548068	0,008099	53,107	-0,075758	22,560000	53,790000
1,551048	0,047440	53,258	-0,075741	22,560000	53,790000
1,554035	-0,070581	53,409	-0,075791	22,560000	53,790000
1,557043	0,116864	53,559	-0,075712	22,560000	53,790000
1,560036	-0,234884	53,709	-0,075860	22,560000	53,790000
1,563069	-0,008099	53,859	-0,075765	22,560000	53,790000
1,566078	-0,195544	54,010	-0,075844	22,560000	53,790000
1,569026	0,116864	54,160	-0,075712	22,560000	53,790000
1,572019	-0,062481	54,311	-0,075788	22,560000	53,790000
1,575048	-0,290423	54,461	-0,075884	22,560000	53,790000
1,578071	-0,016199	54,612	-0,075768	22,560000	53,790000
1,581019	-0,133062	54,763	-0,075817	22,560000	53,790000
1,583988	0,078680	54,914	-0,075728	22,560000	53,790000
1,587089	-0,086780	55,065	-0,075798	22,560000	53,790000
1,590042	-0,195544	55,215	-0,075844	22,560000	53,790000
1,593054	-0,259182	55,365	-0,075871	22,560000	53,790000
1,596062	-0,195544	55,516	-0,075844	22,550000	53,785000
1,599062	-0,149261	55,666	-0,075824	22,550000	53,785000
1,602086	-0,054382	55,816	-0,075784	22,550000	53,785000
1,605039	-0,226785	55,966	-0,075857	22,550000	53,785000
1,608100	0,000000	56,116	-0,075761	22,550000	53,785000
1,611025	-0,234884	56,266	-0,075860	22,550000	53,785000
1,614098	-0,047440	56,416	-0,075781	22,550000	53,785000
1,617050	-0,078680	56,566	-0,075794	22,550000	53,785000
1,620054	-0,195544	56,716	-0,075844	22,550000	53,785000
1,623044	0,156204	56,867	-0,075695	22,550000	53,785000
1,626060	-0,376046	57,017	-0,075920	22,550000	53,785000
1,629019	0,085623	57,168	-0,075725	22,550000	53,785000
1,632024	-0,164303	57,318	-0,075831	22,550000	53,785000
1,635046	0,000000	57,468	-0,075761	22,550000	53,785000
1,638053	-0,321664	57,618	-0,075897	22,550000	53,785000
1,641061	0,047440	57,769	-0,075741	22,550000	53,785000
1,644044	-0,008099	57,920	-0,075765	22,550000	53,785000
1,646998	-0,359847	58,070	-0,075913	22,550000	53,785000
1,650063	-0,352905	58,220	-0,075910	22,550000	53,785000
1,653029	-0,180502	58,370	-0,075837	22,550000	53,785000
1,656044	-0,211743	58,520	-0,075851	22,550000	53,785000
1,659071	-0,195544	58,670	-0,075844	22,550000	53,785000
1,662058	-0,305465	58,821	-0,075890	22,550000	53,785000
1,665028	-0,101822	58,972	-0,075804	22,550000	53,785000
1,668066	-0,211743	59,123	-0,075851	22,550000	53,785000
1,671014	-0,086780	59,273	-0,075798	22,550000	53,785000
1,674004	0,008099	59,423	-0,075758	22,550000	53,825000
1,677027	-0,062481	59,573	-0,075788	22,550000	53,825000
1,680039	-0,259182	59,723	-0,075871	22,550000	53,825000
1,683094	-0,203643	59,874	-0,075847	22,550000	53,825000
1,686076	0,055539	60,024	-0,075738	22,550000	53,825000
1,689042	-0,226785	60,174	-0,075857	22,550000	53,825000
1,692027	-0,282324	60,324	-0,075880	22,550000	53,825000
1,695012	-0,359847	60,474	-0,075913	22,550000	53,825000
1,698048	-0,180502	60,624	-0,075837	22,550000	53,825000
1,701063	-0,399187	60,774	-0,075930	22,550000	53,825000
1,704045	-0,579689	60,925	-0,076006	22,550000	53,825000
1,706999	-0,321664	61,075	-0,075897	22,550000	53,825000
1,710047	-0,180502	61,225	-0,075837	22,550000	53,825000
1,713001	-0,462826	61,375	-0,075957	22,550000	53,825000
1,716026	-0,062481	61,525	-0,075788	22,550000	53,825000
1,719053	-0,211743	61,675	-0,075851	22,550000	53,825000
1,722046	-0,149261	61,825	-0,075824	22,550000	53,825000
1,725051	-0,195544	61,975	-0,075844	22,550000	53,825000
1,728081	-0,172403	62,126	-0,075834	22,550000	53,825000
1,730990	-0,251083	62,276	-0,075867	22,550000	53,825000
1,734055	-0,226785	62,426	-0,075857	22,550000	53,825000
1,737052	-0,164303	62,576	-0,075831	22,550000	53,825000
1,740055	-0,203643	62,726	-0,075847	22,550000	53,825000
1,743020	-0,141162	62,876	-0,075821	22,550000	53,825000
1,746137	-0,282324	63,026	-0,075880	22,550000	53,825000
1,749075	-0,093722	63,176	-0,075801	22,550000	53,825000
1,751964	-0,101822	63,326	-0,075804	22,550000	53,825000
1,755036	-0,109921	63,476	-0,075808	22,550000	53,825000
1,758091	-0,242984	63,626	-0,075864	22,550000	53,825000
1,761018	-0,329763	63,776	-0,075900	22,550000	53,825000
1,764054	-0,399187	63,927	-0,075930	22,550000	53,825000
1,767050	-0,195544	64,077	-0,075844	22,550000	53,825000
1,770034	-0,509108	64,227	-0,075976	22,550000	53,825000
1,773077	-0,234884	64,377	-0,075860	22,550000	53,825000
1,776023	-0,752092	64,527	-0,076079	22,550000	53,825000
1,779063	-0,141162	64,678	-0,075821	22,550000	53,825000
1,782015	-0,109921	64,828	-0,075808	22,550000	53,825000
1,785045	-0,259182	64,978	-0,075871	22,550000	53,825000
1,788060	-0,290423	65,128	-0,075884	22,550000	53,825000
1,790999	-0,344805	65,278	-0,075907	22,550000	53,825000
1,794031	-0,290423	65,428	-0,075884	22,560000	53,820000
1,797072	-0,062481	65,578	-0,075788	22,560000	53,820000
1,800008	-0,359847	65,729	-0,075913	22,560000	53,820000
1,803016	-0,251083	65,880	-0,075867	22,560000	53,820000
1,806026	0,070581	66,030	-0,075731	22,560000	53,820000
1,809076	-0,141162	66,181	-0,075821	22,560000	53,820000
1,812012	-0,219842	66,331	-0,075854	22,560000	53,820000
1,815055	-0,336706	66,481	-0,075903	22,560000	53,820000
1,818022	0,013885	66,631	-0,075755	22,560000	53,820000
1,821043	-0,219842	66,782	-0,075854	22,560000	53,820000
1,824077	-0,259182	66,932	-0,075871	22,560000	53,820000
1,827049	0,039340	67,082	-0,075745	22,560000	53,820000
1,830087	-0,187444	67,232	-0,075840	22,560000	53,820000
1,833077	-0,329763	67,382	-0,075900	22,550000	53,785000
1,836035	-0,219842	67,532	-0,075854	22,550000	53,785000
1,839010	-0,203643	67,682	-0,075847	22,550000	53,785000
1,842037	-0,211743	67,832	-0,075851	22,550000	53,785000
1,845024	-0,109921	67,982	-0,075808	22,550000	53,785000
1,848047	-0,321664	68,133	-0,075897	22,550000	53,785000
1,851026	-0,313564	68,283	-0,075894	22,550000	53,785000
1,854006	-0,054382	68,434	-0,075784	22,550000	53,785000
1,857049	-0,086780	68,584	-0,075798	22,550000	53,785000
1,860028	-0,211743	68,734	-0,075851	22,550000	53,785000
1,863034	-0,329763	68,884	-0,075900	22,550000	53,785000
1,866013	-0,195544	69,034	-0,075844	22,550000	53,785000
1,869032	-0,266125	69,185	-0,075874	22,550000	53,785000
1,872064	-0,118021	69,335	-0,075811	22,550000	53,785000
1,875085	-0,266125	69,485	-0,075874	22,550000	53,815000
1,878052	-0,290423	69,636	-0,075884	22,550000	53,815000
1,881040	-0,274224	69,786	-0,075877	22,550000	53,815000
1,883993	-0,242984	69,936	-0,075864	22,550000	53,815000
1,887012	-0,384145	70,086	-0,075923	22,550000	53,815000
1,890051	-0,274224	70,236	-0,075877	22,550000	53,815000
1,892991	-0,242984	70,388	-0,075864	22,550000	53,815000
1,895973	-0,305465	70,538	-0,075890	22,550000	53,815000
1,899061	-0,336706	70,688	-0,075903	22,550000	53,815000
1,901998	0,282324	70,838	-0,075642	22,550000	53,815000
1,905043	-0,485967	70,988	-0,075966	22,550000	53,815000
1,908059	-0,336706	71,138	-0,075903	22,550000	53,815000
1,911037	-0,321664	71,289	-0,075897	22,550000	53,815000
1,914042	-0,454726	71,439	-0,075953	22,550000	53,825000
1,917020	-0,290423	71,589	-0,075884	22,550000	53,825000
1,920038	-0,431585	71,740	-0,075943	22,550000	53,825000
1,923011	-0,384145	71,890	-0,075923	22,550000	53,825000
1,926013	-0,329763	72,040	-0,075900	22,550000	53,825000
1,928987	-0,313564	72,190	-0,075894	22,550000	53,825000
1,932026	-0,259182	72,340	-0,075871	22,550000	53,825000
1,934999	-0,274224	72,490	-0,075877	22,550000	53,825000
1,938038	-0,658370	72,640	-0,076039	22,550000	53,825000
1,941053	-55,963742	72,790	-0,099378	22,550000	53,825000
1,943995	-147,290849	72,941	-0,137918	22,550000	53,825000
1,946987	-152,354164	73,091	-0,140055	22,550000	53,825000
1,950011	-155,058223	73,242	-0,141196	22,550000	53,825000
1,953039	-155,396086	73,393	-0,141338	22,550000	53,840000
1,955964	-154,478534	73,544	-0,140951	22,550000	53,840000
1,959013	-156,368021	73,694	-0,141749	22,550000	53,840000
1,962016	-153,240475	73,845	-0,140429	22,550000	53,840000
1,965001	-154,910119	73,997	-0,141133	22,550000	53,840000
1,968027	-153,491558	74,147	-0,140535	22,550000	53,840000
1,971069	-150,175411	74,297	-0,139135	22,550000	53,840000
1,973993	-148,983634	74,447	-0,138632	22,550000	53,840000
1,976990	-149,643161	74,597	-0,138911	22,550000	53,840000
1,979996	-146,351313	74,748	-0,137521	22,550000	53,840000
1,983046	-146,679919	74,899	-0,137660	22,550000	53,840000
1,986028	-143,772216	75,050	-0,136433	22,550000	53,840000
1,988991	-143,411211	75,200	-0,136281	22,550000	53,840000
1,992025	-141,083198	75,350	-0,135298	22,550000	53,840000
1,994985	-137,791349	75,500	-0,133909	22,550000	53,840000
1,997951	-138,379138	75,650	-0,134157	22,550000	53,840000
2,001036	-134,420820	75,801	-0,132487	22,550000	53,840000
2,003994	-134,648761	75,951	-0,132583	22,550000	53,840000
2,007057	-130,910286	76,101	-0,131005	22,550000	53,840000
2,010011	-131,450635	76,251	-0,131233	22,550000	53,840000
2,012997	-127,500417	76,401	-0,129566	22,550000	53,840000
2,015983	-128,441110	76,551	-0,129963	22,550000	53,840000
2,019033	-126,379221	76,701	-0,129093	22,550000	53,840000
2,021998	-124,239809	76,852	-0,128190	22,550000	53,840000
2,025006	-122,570164	77,002	-0,127486	22,550000	53,840000
2,028008	-120,312731	77,153	-0,126533	22,550000	53,840000
2,031014	-116,661036	77,303	-0,124992	22,550000	53,840000
2,033998	-117,396929	77,454	-0,125303	22,560000	53,790000
2,036983	-113,164386	77,604	-0,123517	22,560000	53,790000
2,040031	-113,509192	77,754	-0,123662	22,560000	53,790000
2,043005	-109,716334	77,904	-0,122062	22,560000	53,790000
2,045990	-110,013700	78,055	-0,122187	22,560000	53,790000
2,049056	-106,385145	78,205	-0,120656	22,560000	53,790000
2,051978	-105,907277	78,356	-0,120454	22,560000	53,790000
2,054969	-104,017791	78,506	-0,119657	22,560000	53,790000
2,058026	-99,809547	78,656	-0,117881	22,560000	53,790000
2,060971	-100,051374	78,807	-0,117983	22,560000	53,790000
2,063969	-96,086113	78,957	-0,116310	22,560000	53,790000
2,067047	-94,502092	79,107	-0,115641	22,560000	53,790000
2,070049	-94,674495	79,257	-0,115714	22,560000	53,790000
2,073024	-92,746825	79,408	-0,114900	22,550000	53,785000
2,075995	-91,132720	79,558	-0,114219	22,550000	53,785000
2,079006	-88,545524	79,708	-0,113127	22,550000	53,785000
2,082081	-85,112513	79,858	-0,111679	22,550000	53,785000
2,084995	-84,956309	80,008	-0,111613	22,550000	53,785000
2,087962	-81,334697	80,158	-0,110084	22,550000	53,785000
2,091009	-81,342797	80,308	-0,110088	22,550000	53,785000
2,093993	-80,088539	80,458	-0,109559	22,550000	53,785000
2,096996	-77,353238	80,608	-0,108404	22,550000	53,785000
2,099996	-76,373204	80,759	-0,107991	22,550000	53,785000
2,102995	-74,107672	80,910	-0,107035	22,550000	53,785000
2,106003	-70,329856	81,060	-0,105440	22,550000	53,785000
2,109019	-70,423578	81,211	-0,105480	22,550000	53,785000
2,111981	-66,356496	81,361	-0,103764	22,550000	53,785000
2,115007	-67,241651	81,512	-0,104137	22,550000	53,800000
2,117985	-65,079097	81,662	-0,103225	22,550000	53,800000
2,121008	-63,276390	81,812	-0,102464	22,550000	53,800000
2,124067	-60,305049	81,962	-0,101210	22,550000	53,800000
2,127004	-57,146262	82,112	-0,099877	22,550000	53,800000
2,129999	-57,123121	82,263	-0,099867	22,550000	53,800000
2,132979	-53,415886	82,414	-0,098303	22,550000	53,800000
2,135938	-53,501509	82,564	-0,098339	22,550000	53,800000
2,139010	-51,675661	82,715	-0,097568	22,550000	53,800000
2,142039	-49,089622	82,865	-0,096477	22,550000	53,800000
2,144963	-45,993317	83,016	-0,095170	22,550000	53,800000
2,148018	-45,781574	83,166	-0,095081	22,550000	53,800000
2,150993	-44,433594	83,317	-0,094512	22,550000	53,800000
2,153944	-42,113679	83,468	-0,093533	22,550000	53,825000
2,156968	-40,718259	83,618	-0,092944	22,550000	53,825000
2,160031	-38,593889	83,768	-0,092048	22,550000	53,825000
2,163011	-36,290173	83,918	-0,091076	22,550000	53,825000
2,166020	-34,809131	84,068	-0,090451	22,550000	53,825000
2,168960	-30,842713	84,218	-0,088777	22,550000	53,825000
2,172030	-31,508025	84,368	-0,089058	22,550000	53,825000
2,174960	-27,135478	84,519	-0,087212	22,550000	53,825000
2,178005	-27,440943	84,670	-0,087341	22,550000	53,825000
2,181020	-25,528316	84,820	-0,086534	22,550000	53,825000
2,184022	-23,490725	84,970	-0,085674	22,550000	53,825000
2,186997	-21,679919	85,121	-0,084910	22,550000	53,825000
2,190007	-17,055132	85,272	-0,082958	22,550000	53,825000
2,193039	-17,345555	85,422	-0,083081	22,550000	53,825000
2,196014	-13,426577	85,573	-0,081427	22,550000	53,825000
2,198986	-13,740142	85,723	-0,081560	22,550000	53,825000
2,202058	-12,164220	85,873	-0,080895	22,550000	53,825000
2,205024	-9,734384	86,023	-0,079869	22,550000	53,825000
2,207981	-7,767374	86,174	-0,079039	22,550000	53,825000
2,211044	-4,122621	86,324	-0,077501	22,550000	53,825000
2,214009	-1,998251	86,474	-0,076604	22,550000	53,825000
2,216983	-1,653445	86,624	-0,076459	22,550000	53,825000
2,219989	-0,274224	86,774	-0,075877	22,550000	53,825000
2,222997	2,452977	86,925	-0,074726	22,550000	53,825000
2,225981	3,378629	87,075	-0,074335	22,550000	53,825000
2,228995	5,196377	87,225	-0,073568	22,550000	53,825000
2,232005	9,734384	87,375	-0,071653	22,550000	53,825000
2,235002	11,428327	87,525	-0,070938	22,540000	53,815000
2,237966	13,794524	87,675	-0,069940	22,540000	53,815000
2,240973	13,324756	87,826	-0,070138	22,540000	53,815000
2,243986	17,462419	87,976	-0,068392	22,540000	53,815000
2,247014	16,922069	88,126	-0,068620	22,540000	53,815000
2,249956	18,897179	88,276	-0,067787	22,540000	53,815000
2,253022	21,210151	88,426	-0,066811	22,540000	53,815000
2,255969	25,183510	88,576	-0,065134	22,540000	53,815000
2,258990	25,121029	88,726	-0,065160	22,540000	53,815000
2,261981	28,529741	88,876	-0,063722	22,540000	53,815000
2,265005	29,071247	89,026	-0,063493	22,540000	53,815000
2,267962	30,614772	89,176	-0,062842	22,540000	53,815000
2,270962	32,911545	89,326	-0,061873	22,540000	53,815000
2,274022	34,315064	89,476	-0,061280	22,540000	53,815000
2,277017	36,822423	89,626	-0,060222	22,540000	53,815000
2,280003	38,343963	89,776	-0,059580	22,540000	53,815000
2,282961	41,760775	89,927	-0,058138	22,540000	53,815000
2,286041	44,512274	90,077	-0,056977	22,540000	53,815000
2,288945	44,331772	90,228	-0,057053	22,540000	53,815000
2,292027	48,423152	90,378	-0,055327	22,540000	53,815000
2,295023	48,533074	90,528	-0,055280	22,540000	53,815000
2,298020	51,879304	90,678	-0,053868	22,540000	53,815000
2,301028	52,161628	90,828	-0,053749	22,540000	53,815000
2,304011	55,312315	90,978	-0,052419	22,540000	53,815000
2,306972	56,088705	91,128	-0,052092	22,540000	53,815000
2,309975	58,909629	91,279	-0,050901	22,540000	53,815000
2,313004	62,452560	91,429	-0,049406	22,550000	53,815000
2,315984	63,723017	91,579	-0,048870	22,550000	53,815000
2,318993	64,325848	91,730	-0,048616	22,550000	53,815000
2,322028	67,038007	91,880	-0,047471	22,550000	53,815000
2,324973	67,947460	92,030	-0,047087	22,550000	53,815000
2,327996	71,208068	92,180	-0,045711	22,550000	53,815000
2,330999	72,038840	92,331	-0,045361	22,550000	53,815000
2,334007	74,163211	92,482	-0,044464	22,550000	53,815000
2,336999	75,847897	92,632	-0,043753	22,550000	53,815000
2,340070	78,379554	92,782	-0,042685	22,550000	53,815000
2,342967	79,908037	92,932	-0,042040	22,550000	53,815000
2,346034	81,907444	93,083	-0,041196	22,550000	53,815000
2,349032	86,037008	93,233	-0,039454	22,550000	53,815000
2,352021	85,739642	93,383	-0,039579	22,550000	53,800000
2,355041	88,381220	93,533	-0,038464	22,550000	53,800000
2,357987	89,697960	93,683	-0,037909	22,550000	53,800000
2,361019	93,835623	93,833	-0,036163	22,550000	53,800000
2,364014	94,408370	93,983	-0,035921	22,550000	53,800000
2,367098	95,779491	94,133	-0,035342	22,550000	53,800000
2,370054	97,826338	94,283	-0,034479	22,550000	53,800000
2,372981	101,988300	94,433	-0,032722	22,550000	53,800000
2,376015	101,564814	94,584	-0,032901	22,550000	53,800000
2,378987	104,832364	94,735	-0,031522	22,550000	53,800000
2,381989	106,987976	94,885	-0,030612	22,550000	53,800000
2,384977	109,386571	95,036	-0,029600	22,550000	53,800000
2,388066	109,833198	95,186	-0,029412	22,550000	53,800000
2,390947	112,271133	95,337	-0,028383	22,550000	53,800000
2,393966	113,814657	95,487	-0,027731	22,550000	53,785000
2,397060	117,005841	95,638	-0,026385	22,550000	53,785000
2,399966	117,859755	95,788	-0,026024	22,550000	53,785000
2,403026	119,905445	95,938	-0,025161	22,550000	53,785000
2,406008	121,880554	96,088	-0,024328	22,550000	53,785000
2,408943	124,428410	96,238	-0,023252	22,550000	53,785000
2,411998	125,737050	96,388	-0,022700	22,550000	53,785000
2,415005	127,704060	96,538	-0,021870	22,550000	53,785000
2,417994	132,171486	96,689	-0,019985	22,550000	53,785000
2,421032	131,724859	96,839	-0,020173	22,550000	53,785000
2,424032	134,389579	96,989	-0,019049	22,550000	53,785000
2,426952	138,104913	97,139	-0,017481	22,550000	53,785000
2,430001	140,314907	97,289	-0,016548	22,550000	53,785000
2,433036	140,189944	97,440	-0,016601	22,550000	53,815000
2,435984	144,226942	97,591	-0,014897	22,550000	53,815000
2,439013	144,297523	97,742	-0,014868	22,550000	53,815000
2,441990	148,474526	97,892	-0,013105	22,550000	53,815000
2,445049	147,957318	98,042	-0,013323	22,550000	53,815000
2,448009	152,605247	98,192	-0,011362	22,550000	53,815000
2,451005	152,299782	98,342	-0,011491	22,550000	53,815000
2,453995	156,077597	98,492	-0,009896	22,550000	53,815000
2,457019	156,611004	98,642	-0,009671	22,550000	53,815000
2,459989	160,733625	98,792	-0,007932	22,550000	53,815000
2,462995	162,787415	98,942	-0,007065	22,550000	53,815000
2,465921	164,621362	99,092	-0,006291	22,550000	53,815000
2,469013	164,613263	99,243	-0,006294	22,550000	53,815000
2,471991	166,486550	99,393	-0,005504	22,550000	53,815000
2,475000	168,727784	99,544	-0,004558	22,550000	53,815000
2,477992	172,262617	99,694	-0,003066	22,550000	53,815000
2,481071	173,265792	99,845	-0,002643	22,550000	53,815000
2,484025	175,130980	99,995	-0,001856	22,550000	53,815000
2,486959	179,528982	100,145	0,000000	22,550000	53,815000
2,490004	178,839372	100,296	-0,000291	22,550000	53,815000
2,493013	180,916303	100,446	0,000585	22,550000	53,815000
2,495971	183,572923	100,597	0,001707	22,550000	53,815000
2,498976	186,370705	100,748	0,002887	22,550000	53,815000
2,502005	187,061473	100,899	0,003179	22,550000	53,815000
2,505009	188,801698	101,049	0,003913	22,550000	53,815000
2,507983	191,215334	101,200	0,004932	22,550000	53,815000
2,511005	194,013116	101,351	0,006112	22,550000	53,815000
2,514035	195,244233	101,502	0,006632	22,550000	53,815000
2,517004	197,422986	101,653	0,007551	22,550000	53,815000
2,519967	201,803632	101,803	0,009400	22,550000	53,815000
2,523013	201,694868	101,953	0,009354	22,550000	53,815000
2,526022	203,489475	102,103	0,010111	22,550000	53,815000
2,529037	206,240975	102,253	0,011272	22,550000	53,815000
2,532037	209,767708	102,403	0,012761	22,550000	53,815000
2,535010	211,954560	102,553	0,013684	22,550000	53,815000
2,537980	214,118271	102,704	0,014597	22,550000	53,815000
2,540988	214,815980	102,854	0,014891	22,550000	53,815000
2,544009	216,508766	103,004	0,015605	22,550000	53,815000
2,547079	218,561398	103,154	0,016472	22,550000	53,815000
2,550016	219,721934	103,305	0,016961	22,550000	53,815000
2,553037	222,355413	103,455	0,018073	22,560000	53,790000
2,555947	226,540516	103,606	0,019839	22,560000	53,790000
2,558961	226,180669	103,756	0,019687	22,560000	53,790000
2,561998	230,185269	103,907	0,021377	22,560000	53,790000
2,564990	230,342630	104,057	0,021443	22,560000	53,790000
2,568016	231,981033	104,208	0,022135	22,560000	53,790000
2,571002	233,931844	104,359	0,022958	22,560000	53,790000
2,574001	236,134895	104,509	0,023888	22,560000	53,790000
2,577004	238,209512	104,660	0,024763	22,560000	53,790000
2,579985	241,644837	104,811	0,026213	22,560000	53,790000
2,582994	244,842963	104,961	0,027563	22,560000	53,790000
2,586026	244,882303	105,112	0,027579	22,560000	53,790000
2,589013	248,878804	105,262	0,029266	22,560000	53,790000
2,591992	249,435352	105,412	0,029500	22,550000	53,800000
2,595021	250,595888	105,563	0,029990	22,550000	53,800000
2,597994	253,088205	105,713	0,031042	22,550000	53,800000
2,601060	254,687269	105,863	0,031717	22,550000	53,800000
2,604064	256,677420	106,013	0,032557	22,550000	53,800000
2,606994	261,082364	106,163	0,034416	22,550000	53,800000
2,609963	260,886821	106,313	0,034333	22,550000	53,800000
2,613008	263,818822	106,463	0,035570	22,550000	53,800000
2,615994	264,712076	106,614	0,035947	22,550000	53,800000
2,618906	267,376796	106,764	0,037072	22,550000	53,800000
2,622008	269,304465	106,914	0,037885	22,550000	53,800000
2,624984	271,445035	107,064	0,038789	22,550000	53,800000
2,627981	275,818739	107,215	0,040634	22,550000	53,800000
2,631016	277,738309	107,365	0,041444	22,550000	53,800000
2,633960	279,783999	107,515	0,042308	22,550000	53,855000
2,637021	281,312481	107,665	0,042953	22,550000	53,855000
2,640039	281,665386	107,816	0,043102	22,550000	53,855000
2,643009	284,001500	107,967	0,044087	22,550000	53,855000
2,646015	285,725526	108,117	0,044815	22,550000	53,855000
2,649010	288,445785	108,267	0,045963	22,550000	53,855000
2,651955	292,277982	108,417	0,047580	22,550000	53,855000
2,655034	293,476701	108,567	0,048086	22,550000	53,855000
2,657968	296,416802	108,717	0,049327	22,550000	53,855000
2,660987	297,905945	108,867	0,049955	22,550000	53,855000
2,663999	301,158453	109,017	0,051328	22,550000	53,855000
2,667056	302,310889	109,167	0,051814	22,550000	53,855000
2,670024	304,732626	109,318	0,052836	22,550000	53,855000
2,673000	304,537082	109,468	0,052753	22,550000	53,815000
2,675988	309,137570	109,618	0,054695	22,550000	53,815000
2,678999	309,686019	109,769	0,054926	22,550000	53,815000
2,682011	310,775974	109,920	0,055386	22,550000	53,815000
2,685012	313,338872	110,070	0,056468	22,550000	53,815000
2,688017	314,624371	110,221	0,057010	22,550000	53,815000
2,690970	317,092389	110,372	0,058052	22,550000	53,815000
2,690926	318,989975	110,522	0,058853	22,550000	53,815000
2,690995	318,723850	110,673	0,058740	22,550000	53,815000
2,691002	318,377888	110,823	0,058594	22,550000	53,815000
2,691033	318,385987	110,973	0,058598	22,550000	53,815000
2,690913	317,829439	111,123	0,058363	22,550000	53,815000
2,691024	318,127962	111,273	0,058489	22,550000	53,815000
2,691039	317,775057	111,423	0,058340	22,550000	53,815000
2,690982	317,147928	111,574	0,058075	22,550000	53,815000
2,690958	317,092389	111,724	0,058052	22,550000	53,815000
2,691030	317,162970	111,874	0,058082	22,550000	53,815000
2,690997	316,952384	112,024	0,057993	22,550000	53,815000
2,690996	317,131729	112,174	0,058068	22,550000	53,815000
2,690963	316,489559	112,324	0,057797	22,550000	53,815000
2,691004	316,552040	112,475	0,057824	22,550000	53,815000
2,690967	316,481459	112,626	0,057794	22,550000	53,815000
2,690987	316,395836	112,777	0,057758	22,550000	53,815000
2,691001	316,003592	112,927	0,057592	22,550000	53,815000
2,690988	316,277816	113,077	0,057708	22,550000	53,815000
2,691028	316,082272	113,227	0,057625	22,550000	53,815000
2,690986	315,909869	113,377	0,057553	22,550000	53,815000
2,690987	315,407703	113,527	0,057341	22,550000	53,815000
2,691026	315,297782	113,677	0,057294	22,550000	53,815000
2,690998	315,470185	113,827	0,057367	22,550000	53,815000
2,690998	315,463242	113,977	0,057364	22,550000	53,815000
2,690988	315,361421	114,127	0,057321	22,550000	53,815000
2,691011	315,494483	114,277	0,057377	22,550000	53,815000
2,690967	315,227201	114,427	0,057265	22,550000	53,815000
2,691002	314,976118	114,577	0,057159	22,550000	53,815000
2,690996	314,632470	114,728	0,057014	22,550000	53,815000
2,690988	314,976118	114,878	0,057159	22,550000	53,815000
2,690974	314,788674	115,028	0,057080	22,550000	53,815000
2,690977	314,694951	115,178	0,057040	22,550000	53,815000
2,691005	314,632470	115,328	0,057014	22,550000	53,815000
2,690979	314,608172	115,479	0,057003	22,550000	53,785000
2,691005	314,460067	115,630	0,056941	22,550000	53,785000
2,691046	314,427670	115,781	0,056927	22,550000	53,785000
2,691006	314,435769	115,932	0,056931	22,550000	53,785000
2,690961	314,177744	116,082	0,056822	22,550000	53,785000
2,690985	314,161545	116,232	0,056815	22,550000	53,785000
2,691011	314,263366	116,382	0,056858	22,550000	53,785000
2,690973	314,248325	116,533	0,056852	22,550000	53,785000
2,690955	314,153445	116,683	0,056812	22,550000	53,785000
2,690957	314,138403	116,833	0,056805	22,550000	53,785000
2,691000	313,949802	116,983	0,056726	22,550000	53,785000
2,691003	313,808640	117,133	0,056666	22,550000	53,785000
2,690982	313,847980	117,284	0,056683	22,550000	53,785000
2,690961	313,847980	117,434	0,056683	22,550000	53,800000
2,691059	313,949802	117,584	0,056726	22,550000	53,800000
2,690929	313,729960	117,734	0,056633	22,550000	53,800000
2,690958	313,511274	117,884	0,056541	22,550000	53,800000
2,690906	313,706818	118,034	0,056623	22,550000	53,800000
2,690980	313,542515	118,184	0,056554	22,550000	53,800000
2,690997	313,362013	118,334	0,056478	22,550000	53,800000
2,690970	313,362013	118,484	0,056478	22,550000	53,800000
2,690946	313,228951	118,634	0,056421	22,550000	53,800000
2,690983	313,291432	118,784	0,056448	22,550000	53,800000
2,690987	313,353914	118,935	0,056474	22,550000	53,800000
2,691040	313,158370	119,085	0,056392	22,550000	53,800000
2,690953	313,213909	119,235	0,056415	22,550000	53,800000
2,690917	313,048449	119,385	0,056345	22,560000	53,820000
2,691017	313,079689	119,535	0,056358	22,560000	53,820000
2,691017	313,095888	119,685	0,056365	22,560000	53,820000
2,690975	312,923486	119,836	0,056292	22,560000	53,820000
2,690973	312,985967	119,986	0,056319	22,560000	53,820000
2,691010	312,829763	120,136	0,056253	22,560000	53,820000
2,691000	312,876046	120,286	0,056272	22,560000	53,820000
2,691036	312,774224	120,436	0,056229	22,560000	53,820000
2,688046	312,508099	120,586	0,056117	22,560000	53,820000
2,684895	307,985134	120,736	0,054208	22,560000	53,820000
2,681988	307,444785	120,886	0,053980	22,560000	53,820000
2,678976	305,673319	121,036	0,053233	22,560000	53,820000
2,675996	303,071081	121,186	0,052135	22,560000	53,820000
2,672987	300,892328	121,336	0,051215	22,560000	53,820000
2,669982	296,103238	121,486	0,049194	22,560000	53,820000
2,666989	293,775224	121,637	0,048212	22,560000	53,820000
2,663935	293,469759	121,788	0,048083	22,560000	53,820000
2,660943	290,828181	121,939	0,046968	22,560000	53,820000
2,657973	289,252259	122,089	0,046303	22,560000	53,820000
2,654997	286,901103	122,239	0,045311	22,560000	53,820000
2,651981	284,707309	122,390	0,044385	22,560000	53,820000
2,648972	281,195618	122,540	0,042903	22,560000	53,820000
2,645986	277,472184	122,690	0,041332	22,560000	53,820000
2,642996	277,574006	122,840	0,041375	22,560000	53,820000
2,640027	275,716917	122,990	0,040591	22,560000	53,820000
2,636972	272,973517	123,140	0,039434	22,560000	53,820000
2,634024	270,739225	123,290	0,038491	22,560000	53,820000
2,630985	266,969509	123,440	0,036900	22,550000	53,800000
2,627974	266,193119	123,590	0,036572	22,550000	53,800000
2,624955	263,544598	123,740	0,035455	22,550000	53,800000
2,621998	258,880471	123,890	0,033486	22,550000	53,800000
2,619007	258,340121	124,041	0,033258	22,550000	53,800000
2,615917	257,069665	124,191	0,032722	22,550000	53,800000
2,612956	253,887737	124,342	0,031379	22,550000	53,800000
2,610012	252,296773	124,492	0,030708	22,550000	53,800000
2,606963	249,545274	124,642	0,029547	22,550000	53,800000
2,604003	245,869279	124,793	0,027996	22,550000	53,800000
2,601005	243,165220	124,943	0,026854	22,550000	53,800000
2,598051	240,994566	125,093	0,025938	22,550000	53,800000
2,595002	241,048948	125,243	0,025961	22,550000	53,800000
2,591994	236,519041	125,393	0,024050	22,550000	53,800000
2,589052	236,534082	125,543	0,024056	22,550000	53,800000
2,586022	234,237309	125,693	0,023087	22,550000	53,800000
2,582985	232,160378	125,844	0,022210	22,550000	53,800000
2,579981	229,754841	125,995	0,021195	22,550000	53,800000
2,577007	227,441869	126,146	0,020219	22,550000	53,800000
2,574010	224,291182	126,296	0,018890	22,550000	53,800000
2,571040	220,795690	126,446	0,017415	22,550000	53,800000
2,567968	220,521466	126,596	0,017299	22,550000	53,800000
2,565022	218,984884	126,746	0,016650	22,550000	53,800000
2,561964	214,776640	126,897	0,014875	22,550000	53,800000
2,558963	214,345055	127,048	0,014692	22,550000	53,800000
2,555996	210,394837	127,198	0,013025	22,550000	53,800000
2,552935	209,963252	127,349	0,012843	22,550000	53,800000
2,549996	205,080439	127,500	0,010783	22,550000	53,825000
2,546995	203,998584	127,650	0,010326	22,550000	53,825000
2,543986	203,356413	127,800	0,010055	22,550000	53,825000
2,540955	198,677244	127,950	0,008081	22,550000	53,825000
2,537969	198,073256	128,100	0,007826	22,550000	53,825000
2,534975	196,247408	128,251	0,007055	22,550000	53,825000
2,531918	191,458318	128,402	0,005034	22,550000	53,825000
2,528996	189,412628	128,552	0,004171	22,550000	53,825000
2,526019	189,632470	128,702	0,004264	22,550000	53,825000
2,523022	187,523141	128,852	0,003374	22,550000	53,825000
2,520009	185,431169	129,003	0,002491	22,550000	53,825000
2,516963	183,095055	129,154	0,001505	22,550000	53,825000
2,513994	180,767041	129,304	0,000522	22,550000	53,825000
2,510998	178,164803	129,454	-0,000576	22,540000	53,840000
2,507994	174,073423	129,605	-0,002302	22,540000	53,840000
2,505019	173,047106	129,755	-0,002735	22,540000	53,840000
2,501982	172,223276	129,905	-0,003083	22,540000	53,840000
2,498987	168,469759	130,055	-0,004667	22,540000	53,840000
2,495963	167,529065	130,205	-0,005064	22,540000	53,840000
2,493004	165,412794	130,355	-0,005957	22,540000	53,840000
2,489978	163,350905	130,505	-0,006827	22,540000	53,840000
2,486989	159,973434	130,656	-0,008252	22,540000	53,840000
2,483991	156,524224	130,806	-0,009708	22,540000	53,840000
2,480992	155,591630	130,957	-0,010102	22,540000	53,840000
2,478047	154,792099	131,109	-0,010439	22,540000	53,840000
2,474948	152,181761	131,259	-0,011541	22,540000	53,840000
2,471991	149,987967	131,410	-0,012466	22,560000	53,820000
2,468980	148,035999	131,560	-0,013290	22,560000	53,820000
2,465964	145,961382	131,710	-0,014166	22,560000	53,820000
2,462974	143,575515	131,860	-0,015172	22,560000	53,820000
2,459983	139,296690	132,011	-0,016978	22,560000	53,820000
2,456927	139,124287	132,161	-0,017051	22,560000	53,820000
2,454026	137,031157	132,311	-0,017934	22,560000	53,820000
2,450999	134,829264	132,461	-0,018863	22,560000	53,820000
2,447942	130,063315	132,611	-0,020875	22,560000	53,820000
2,445011	128,181928	132,761	-0,021668	22,560000	53,820000
2,441996	126,582864	132,911	-0,022343	22,560000	53,820000
2,439043	126,246159	133,062	-0,022485	22,560000	53,820000
2,435958	122,515782	133,212	-0,024060	22,560000	53,820000
2,432981	122,084197	133,362	-0,024242	22,560000	53,820000
2,429981	118,972851	133,513	-0,025555	22,560000	53,820000
2,426983	117,639912	133,664	-0,026117	22,560000	53,820000
2,424017	114,481126	133,814	-0,027450	22,560000	53,820000
2,420990	111,158037	133,964	-0,028853	22,560000	53,820000
2,418028	109,747575	134,114	-0,029448	22,560000	53,820000
2,414993	107,560723	134,264	-0,030371	22,560000	53,820000
2,412025	106,009099	134,414	-0,031025	22,560000	53,820000
2,408987	101,870279	134,564	-0,032772	22,560000	53,820000
2,405996	100,686602	134,714	-0,033271	22,560000	53,820000
2,403013	100,263116	134,864	-0,033450	22,560000	53,820000
2,400015	97,716417	135,014	-0,034525	22,560000	53,820000
2,396969	95,544607	135,164	-0,035441	22,560000	53,820000
2,393984	93,554456	135,315	-0,036281	22,560000	53,820000
2,391023	90,105247	135,465	-0,037737	22,550000	53,825000
2,387981	89,274474	135,616	-0,038087	22,550000	53,825000
2,384971	84,955152	135,766	-0,039910	22,550000	53,825000
2,382011	84,721425	135,916	-0,040009	22,550000	53,825000
2,379008	82,956902	136,066	-0,040753	22,550000	53,825000
2,376010	78,402695	136,216	-0,042675	22,550000	53,825000
2,372970	77,517541	136,366	-0,043049	22,550000	53,825000
2,370018	76,749250	136,516	-0,043373	22,550000	53,825000
2,367042	72,046940	136,667	-0,045357	22,550000	53,825000
2,363919	69,632146	136,817	-0,046376	22,550000	53,825000
2,361031	68,221684	136,968	-0,046972	22,550000	53,825000
2,358006	65,791849	137,118	-0,047997	22,550000	53,825000
2,354992	66,199135	137,268	-0,047825	22,550000	53,825000
2,352073	63,981043	137,418	-0,048761	22,550000	53,825000
2,348960	60,689194	137,568	-0,050150	22,550000	53,825000
2,346024	59,505517	137,719	-0,050650	22,550000	53,825000
2,343022	56,080606	137,869	-0,052095	22,550000	53,825000
2,339984	55,477775	138,019	-0,052350	22,550000	53,825000
2,336980	53,258525	138,169	-0,053286	22,550000	53,825000
2,334049	48,799198	138,320	-0,055168	22,550000	53,825000
2,330945	47,929086	138,471	-0,055535	22,550000	53,825000
2,328027	44,825839	138,622	-0,056845	22,550000	53,825000
2,324992	44,244992	138,773	-0,057090	22,550000	53,825000
2,322017	42,654028	138,924	-0,057761	22,550000	53,825000
2,318954	40,209151	139,074	-0,058793	22,550000	53,825000
2,316007	37,120946	139,224	-0,060096	22,550000	53,825000
2,312991	36,203393	139,374	-0,060483	22,550000	53,825000
2,310038	34,055882	139,524	-0,061390	22,550000	53,800000
2,306990	32,018291	139,674	-0,062250	22,550000	53,800000
2,303985	29,893920	139,824	-0,063146	22,550000	53,800000
2,301001	25,472777	139,975	-0,065012	22,550000	53,800000
2,297949	24,940527	140,125	-0,065236	22,550000	53,800000
2,294971	23,584447	140,276	-0,065809	22,550000	53,800000
2,292032	20,794765	140,426	-0,066986	22,550000	53,800000
2,289040	19,476868	140,577	-0,067542	22,550000	53,800000
2,285960	15,582189	140,727	-0,069186	22,550000	53,800000
2,282985	15,628471	140,877	-0,069166	22,550000	53,800000
2,280007	13,293515	141,028	-0,070151	22,550000	53,800000
2,276977	10,220351	141,178	-0,071448	22,550000	53,800000
2,273962	8,903612	141,329	-0,072004	22,550000	53,800000
2,271020	6,732959	141,479	-0,072920	22,540000	53,815000
2,267999	3,314990	141,629	-0,074362	22,540000	53,815000
2,264995	2,853321	141,780	-0,074557	22,540000	53,815000
2,262000	0,124963	141,930	-0,075708	22,540000	53,815000
2,259008	-3,582272	142,080	-0,077273	22,540000	53,815000
2,256017	-3,065064	142,231	-0,077055	22,540000	53,815000
2,253036	-7,924735	142,381	-0,079105	22,540000	53,815000
2,250002	-7,611171	142,532	-0,078973	22,540000	53,815000
2,247017	-9,468259	142,682	-0,079757	22,540000	53,815000
2,244031	-14,045607	142,832	-0,081688	22,540000	53,815000
2,240984	-13,912544	142,983	-0,081632	22,540000	53,815000
2,238020	-15,902695	143,133	-0,082472	22,540000	53,815000
2,235004	-20,010275	143,283	-0,084206	22,540000	53,815000
2,232050	-19,736050	143,433	-0,084090	22,560000	53,830000
2,229054	-22,189027	143,583	-0,085125	22,560000	53,830000
2,225977	-25,536415	143,734	-0,086538	22,560000	53,830000
2,223020	-26,092963	143,884	-0,086772	22,560000	53,830000
2,220016	-30,583531	144,034	-0,088667	22,560000	53,830000
2,217004	-32,574839	144,184	-0,089508	22,560000	53,830000
2,214014	-34,628629	144,335	-0,090375	22,560000	53,830000
2,210979	-34,549948	144,485	-0,090341	22,560000	53,830000
2,208045	-36,516958	144,635	-0,091171	22,560000	53,830000
2,205039	-38,625130	144,785	-0,092061	22,560000	53,830000
2,201961	-43,046273	144,935	-0,093927	22,560000	53,830000
2,198994	-42,826431	145,085	-0,093834	22,560000	53,830000
2,196013	-44,621038	145,235	-0,094591	22,560000	53,830000
2,192958	-47,929086	145,386	-0,095987	22,560000	53,830000
2,189962	-51,628221	145,536	-0,097548	22,540000	53,840000
2,187008	-51,480117	145,686	-0,097486	22,540000	53,840000
2,184021	-54,043015	145,836	-0,098567	22,540000	53,840000
2,181041	-55,696460	145,986	-0,099265	22,540000	53,840000
2,178019	-57,389246	146,136	-0,099979	22,540000	53,840000
2,174998	-60,313148	146,286	-0,101213	22,540000	53,840000
2,171992	-61,567406	146,436	-0,101743	22,540000	53,840000
2,169000	-63,644337	146,586	-0,102619	22,540000	53,840000
2,166010	-68,018041	146,736	-0,104465	22,540000	53,840000
2,163012	-69,114938	146,886	-0,104928	22,540000	53,840000
2,159948	-72,117521	147,037	-0,106195	22,540000	53,840000
2,157004	-71,858338	147,187	-0,106085	22,540000	53,840000
2,153991	-73,677244	147,338	-0,106853	22,540000	53,840000
2,150981	-76,248241	147,488	-0,107938	22,550000	53,775000
2,148024	-77,988466	147,638	-0,108672	22,550000	53,775000
2,145010	-82,462835	147,789	-0,110561	22,550000	53,775000
2,141964	-84,078097	147,940	-0,111242	22,550000	53,775000
2,139042	-84,242400	148,091	-0,111312	22,550000	53,775000
2,135970	-88,255100	148,242	-0,113005	22,550000	53,775000
2,132985	-88,349980	148,392	-0,113045	22,550000	53,775000
2,130032	-90,426911	148,542	-0,113921	22,550000	53,775000
2,127020	-92,362680	148,693	-0,114738	22,550000	53,775000
2,123986	-94,533333	148,844	-0,115654	22,550000	53,775000
2,121042	-99,025057	148,994	-0,117550	22,550000	53,775000
2,117958	-99,558464	149,144	-0,117775	22,550000	53,775000
2,115018	-102,998417	149,294	-0,119227	22,550000	53,775000
2,111999	-103,876629	149,444	-0,119597	22,540000	53,800000
2,109041	-104,871705	149,594	-0,120017	22,540000	53,800000
2,106013	-108,335956	149,744	-0,121479	22,540000	53,800000
2,103034	-109,112346	149,895	-0,121807	22,540000	53,800000
2,100077	-111,926327	150,045	-0,122994	22,540000	53,800000
2,097064	-115,586123	150,195	-0,124539	22,540000	53,800000
2,094012	-116,033907	150,345	-0,124728	22,540000	53,800000
2,091035	-119,685602	150,495	-0,126269	22,540000	53,800000
2,088006	-119,129054	150,646	-0,126034	22,540000	53,800000
2,084978	-120,877379	150,796	-0,126771	22,540000	53,800000
2,082018	-123,542099	150,946	-0,127896	22,540000	53,800000
2,079063	-125,157361	151,097	-0,128578	22,540000	53,800000
2,076051	-127,006350	151,248	-0,129358	22,540000	53,800000
2,073025	-130,283157	151,398	-0,130741	22,550000	53,825000
2,070013	-133,456985	151,548	-0,132080	22,550000	53,825000
2,067043	-133,190860	151,698	-0,131968	22,550000	53,825000
2,064004	-135,330273	151,849	-0,132871	22,550000	53,825000
2,061047	-137,259099	151,999	-0,133685	22,550000	53,825000
2,057990	-141,820248	152,149	-0,135609	22,550000	53,825000
2,054990	-141,546023	152,300	-0,135494	22,550000	53,825000
2,052011	-145,770466	152,451	-0,137276	22,550000	53,825000
2,049058	-146,609338	152,601	-0,137630	22,550000	53,825000
2,046044	-147,510691	152,751	-0,138011	22,550000	53,825000
2,043077	-151,014283	152,901	-0,139489	22,550000	53,825000
2,040039	-151,296607	153,052	-0,139608	22,550000	53,825000
2,037023	-154,407953	153,202	-0,140921	22,550000	53,825000
2,033977	-155,411128	153,352	-0,141345	22,550000	53,825000
2,030981	-158,146429	153,502	-0,142499	22,550000	53,785000
2,027991	-161,932344	153,652	-0,144097	22,550000	53,785000
2,025029	-161,556298	153,802	-0,143938	22,550000	53,785000
2,021985	-163,554549	153,952	-0,144781	22,550000	53,785000
2,019036	-166,392828	154,102	-0,145979	22,550000	53,785000
2,016093	-167,724609	154,252	-0,146541	22,550000	53,785000
2,013020	-170,515449	154,402	-0,147719	22,550000	53,785000
2,010040	-174,277066	154,552	-0,149306	22,550000	53,785000
2,006940	-174,245825	154,702	-0,149293	22,550000	53,785000
2,003994	-177,984301	154,853	-0,150871	22,550000	53,785000
2,001008	-178,227285	155,003	-0,150973	22,550000	53,785000
1,998042	-182,123121	155,154	-0,152617	22,550000	53,785000
1,995012	-181,934519	155,304	-0,152538	22,550000	53,785000
1,991971	-183,902686	155,454	-0,153368	22,560000	53,820000
1,989050	-188,135228	155,604	-0,155154	22,560000	53,820000
1,986059	-189,992317	155,754	-0,155938	22,560000	53,820000
1,983065	-189,811815	155,904	-0,155862	22,560000	53,820000
1,980034	-193,213585	156,055	-0,157297	22,560000	53,820000
1,977024	-193,653269	156,206	-0,157483	22,560000	53,820000
1,974044	-197,541006	156,356	-0,159124	22,560000	53,820000
1,971091	-199,609838	156,506	-0,159997	22,560000	53,820000
1,968035	-199,977784	156,657	-0,160152	22,560000	53,820000
1,964970	-201,859171	156,807	-0,160946	22,560000	53,820000
1,961947	-205,175318	156,957	-0,162345	22,560000	53,820000
1,959046	-205,660128	157,108	-0,162550	22,560000	53,820000
1,956045	-207,761358	157,258	-0,163437	22,560000	53,820000
1,953017	-209,759608	157,409	-0,164280	22,540000	53,825000
1,950013	-212,386145	157,559	-0,165388	22,540000	53,825000
1,947065	-216,203301	157,710	-0,166999	22,540000	53,825000
1,944019	-215,912878	157,860	-0,166876	22,540000	53,825000
1,941013	-218,099730	158,010	-0,167799	22,540000	53,825000
1,938006	-220,168561	158,160	-0,168672	22,540000	53,825000
1,935041	-221,940027	158,311	-0,169420	22,540000	53,825000
1,932061	-224,251842	158,461	-0,170396	22,540000	53,825000
1,929001	-225,725942	158,611	-0,171018	22,540000	53,825000
1,926050	-227,763533	158,762	-0,171877	22,540000	53,825000
1,923081	-231,823673	158,913	-0,173591	22,540000	53,825000
1,920034	-231,502009	159,063	-0,173455	22,540000	53,825000
1,916992	-234,197969	159,213	-0,174593	22,540000	53,825000
1,913993	-235,680169	159,363	-0,175218	22,540000	53,825000
1,910994	-239,474184	159,513	-0,176819	22,540000	53,825000
1,908019	-241,997741	159,663	-0,177884	22,540000	53,825000
1,905061	-242,287008	159,813	-0,178006	22,540000	53,825000
1,902073	-243,823589	159,963	-0,178655	22,540000	53,825000
1,899039	-245,806798	160,113	-0,179492	22,540000	53,825000
1,896028	-247,640745	160,264	-0,180266	22,540000	53,825000
1,893000	-251,058714	160,414	-0,181708	22,540000	53,825000
1,890058	-251,050615	160,565	-0,181705	22,540000	53,825000
1,886952	-254,529908	160,715	-0,183173	22,540000	53,825000
1,884035	-255,055215	160,866	-0,183395	22,540000	53,825000
1,880999	-257,015283	161,016	-0,184222	22,540000	53,825000
1,878041	-261,146003	161,166	-0,185965	22,540000	53,825000
1,875049	-262,132979	161,317	-0,186381	22,540000	53,825000
1,872003	-265,441027	161,467	-0,187777	22,550000	53,815000
1,869057	-266,060056	161,617	-0,188039	22,550000	53,815000
1,866072	-267,721601	161,768	-0,188740	22,550000	53,815000
1,863054	-268,803456	161,919	-0,189196	22,550000	53,815000
1,860051	-272,871695	162,069	-0,190913	22,550000	53,815000
1,857013	-274,768124	162,220	-0,191713	22,550000	53,815000
1,854045	-276,163544	162,370	-0,192302	22,550000	53,815000
1,851034	-276,350989	162,520	-0,192381	22,550000	53,815000
1,848027	-278,961326	162,670	-0,193483	22,550000	53,815000
1,845021	-280,286165	162,820	-0,194042	22,550000	53,815000
1,842092	-283,711076	162,971	-0,195487	22,550000	53,815000
1,838997	-284,016541	163,121	-0,195616	22,550000	53,815000
1,836058	-285,812306	163,271	-0,196374	22,550000	53,815000
1,833031	-287,716834	163,422	-0,197178	22,550000	53,825000
1,830113	-290,867521	163,572	-0,198507	22,550000	53,825000
1,827029	-294,080689	163,722	-0,199863	22,550000	53,825000
1,824049	-295,131304	163,872	-0,200307	22,550000	53,825000
1,821024	-295,428669	164,022	-0,200432	22,550000	53,825000
1,817997	-298,838539	164,172	-0,201871	22,550000	53,825000
1,815005	-299,104663	164,322	-0,201983	22,550000	53,825000
1,812049	-302,381470	164,472	-0,203366	22,550000	53,825000
1,809058	-302,560815	164,622	-0,203442	22,550000	53,825000
1,806043	-306,417312	164,772	-0,205069	22,550000	53,825000
1,803024	-306,323589	164,922	-0,205030	22,550000	53,825000
1,800029	-309,364355	165,072	-0,206313	22,550000	53,825000
1,797046	-312,468759	165,223	-0,207623	22,550000	53,825000
1,794011	-312,414377	165,373	-0,207600	22,550000	53,825000
1,791060	-316,543941	165,523	-0,209343	22,550000	53,825000
1,788032	-317,241651	165,673	-0,209637	22,550000	53,825000
1,785031	-317,704476	165,823	-0,209833	22,550000	53,825000
1,782029	-321,874537	165,974	-0,211592	22,550000	53,825000
1,779075	-321,623454	166,124	-0,211486	22,550000	53,825000
1,776079	-325,252009	166,274	-0,213018	22,550000	53,825000
1,773016	-327,463159	166,424	-0,213951	22,550000	53,825000
1,770061	-327,689944	166,574	-0,214046	22,550000	53,825000
1,767110	-330,661286	166,724	-0,215300	22,550000	53,825000
1,764072	-330,628888	166,875	-0,215287	22,550000	53,825000
1,760996	-334,790849	167,025	-0,217043	22,550000	53,825000
1,758016	-336,774058	167,176	-0,217880	22,550000	53,825000
1,755039	-336,382970	167,326	-0,217715	22,550000	53,825000
1,752057	-338,632303	167,477	-0,218664	22,550000	53,785000
1,748967	-340,669894	167,627	-0,219524	22,550000	53,785000
1,745990	-342,441360	167,777	-0,220271	22,550000	53,785000
1,743061	-346,211076	167,928	-0,221862	22,550000	53,785000
1,739976	-348,146845	168,078	-0,222679	22,550000	53,785000
1,737048	-349,942610	168,229	-0,223437	22,550000	53,785000
1,734102	-349,863929	168,380	-0,223404	22,550000	53,785000
1,731054	-353,101396	168,530	-0,224770	22,550000	53,785000
1,728007	-355,749917	168,680	-0,225888	22,550000	53,785000
1,725024	-357,160378	168,830	-0,226483	22,550000	53,785000
1,722088	-357,122195	168,980	-0,226467	22,550000	53,785000
1,719026	-359,480293	169,131	-0,227462	22,550000	53,785000
1,715998	-360,931252	169,282	-0,228074	22,550000	53,785000
1,713027	-363,454810	169,432	-0,229139	22,550000	53,825000
1,710030	-366,229451	169,582	-0,230310	22,550000	53,825000
1,707043	-366,158870	169,732	-0,230280	22,550000	53,825000
1,704078	-368,173319	169,882	-0,231130	22,550000	53,825000
1,701029	-369,905445	170,033	-0,231861	22,550000	53,825000
1,698089	-371,433927	170,183	-0,232506	22,550000	53,825000
1,695057	-373,926244	170,333	-0,233558	22,550000	53,825000
1,692022	-377,429836	170,484	-0,235037	22,550000	53,825000
1,689054	-376,850146	170,634	-0,234792	22,550000	53,825000
1,686042	-380,870946	170,784	-0,236489	22,550000	53,825000
1,683014	-380,870946	170,934	-0,236489	22,550000	53,825000
1,680062	-382,430669	171,084	-0,237147	22,550000	53,825000
1,677007	-384,233375	171,234	-0,237908	22,550000	53,825000
1,674092	-386,748834	171,386	-0,238969	22,550000	53,825000
1,671033	-387,541423	171,536	-0,239304	22,550000	53,825000
1,668040	-391,028816	171,687	-0,240775	22,550000	53,825000
1,665019	-391,655945	171,837	-0,241040	22,550000	53,825000
1,662084	-394,947793	171,988	-0,242429	22,550000	53,825000
1,658970	-395,064657	172,139	-0,242479	22,550000	53,825000
1,656051	-397,911036	172,289	-0,243680	22,550000	53,825000
1,653039	-400,685676	172,439	-0,244851	22,550000	53,825000
1,650107	-402,268541	172,590	-0,245519	22,550000	53,825000
1,647046	-402,754508	172,740	-0,245724	22,550000	53,825000
1,644041	-405,387987	172,890	-0,246835	22,550000	53,825000
1,641049	-408,812898	173,041	-0,248280	22,550000	53,825000
1,638027	-409,683011	173,191	-0,248647	22,550000	53,825000
1,635113	-410,216417	173,341	-0,248873	22,550000	53,825000
1,632013	-412,505091	173,491	-0,249838	22,540000	53,825000
1,629024	-416,189185	173,641	-0,251393	22,540000	53,825000
1,626117	-415,678919	173,791	-0,251178	22,540000	53,825000
1,623061	-417,379804	173,941	-0,251896	22,540000	53,825000
1,620015	-418,986967	174,092	-0,252574	22,540000	53,825000
1,617108	-421,573006	174,242	-0,253665	22,540000	53,825000
1,614069	-422,945285	174,392	-0,254244	22,540000	53,825000
1,611007	-427,263450	174,542	-0,256066	22,540000	53,825000
1,608042	-426,488216	174,692	-0,255739	22,540000	53,825000
1,605048	-430,328514	174,842	-0,257360	22,540000	53,825000
1,602032	-429,583364	174,992	-0,257045	22,540000	53,825000
1,599086	-431,433510	175,143	-0,257826	22,540000	53,825000
1,596076	-435,391828	175,293	-0,259497	22,540000	53,825000
1,593065	-436,010858	175,443	-0,259758	22,540000	53,800000
1,590085	-438,659379	175,594	-0,260875	22,540000	53,800000
1,587085	-440,149678	175,744	-0,261504	22,540000	53,800000
1,584046	-440,423902	175,894	-0,261620	22,540000	53,800000
1,581064	-442,139829	176,044	-0,262344	22,540000	53,800000
1,578102	-445,690860	176,195	-0,263843	22,540000	53,800000
1,575078	-445,298615	176,345	-0,263677	22,540000	53,800000
1,572059	-449,429336	176,496	-0,265420	22,540000	53,800000
1,569087	-448,598563	176,647	-0,265070	22,540000	53,800000
1,566059	-452,548782	176,797	-0,266737	22,540000	53,800000
1,563075	-452,407620	176,947	-0,266677	22,540000	53,800000
1,560015	-453,811139	177,097	-0,267270	22,540000	53,800000
1,557115	-455,535166	177,248	-0,267997	22,540000	53,800000
1,554019	-457,275391	177,398	-0,268731	22,540000	53,800000
1,551081	-460,324256	177,548	-0,270018	22,540000	53,800000
1,548000	-463,412461	177,698	-0,271321	22,540000	53,800000
1,545011	-463,616104	177,848	-0,271407	22,540000	53,800000
1,542063	-467,175235	177,998	-0,272909	22,540000	53,800000
1,539054	-466,610588	178,148	-0,272671	22,540000	53,800000
1,536081	-470,168561	178,298	-0,274172	22,540000	53,800000
1,533023	-472,206152	178,448	-0,275032	22,540000	53,800000
1,530098	-473,264866	178,598	-0,275479	22,540000	53,800000
1,527076	-475,514199	178,748	-0,276428	22,540000	53,800000
1,524089	-474,965751	178,899	-0,276197	22,540000	53,800000
1,520994	-477,144503	179,050	-0,277116	22,540000	53,800000
1,518059	-480,797356	179,201	-0,278658	22,540000	53,800000
1,514976	-480,311389	179,351	-0,278453	22,540000	53,800000
1,512078	-483,806881	179,501	-0,279928	22,550000	53,825000
1,509079	-483,485217	179,651	-0,279792	22,550000	53,825000
1,506082	-487,467834	179,802	-0,281473	22,550000	53,825000
1,503065	-489,160619	179,953	-0,282187	22,550000	53,825000
1,500087	-489,418644	180,103	-0,282296	22,550000	53,825000
1,497036	-493,000916	180,254	-0,283808	22,550000	53,825000
1,493997	-494,059630	180,404	-0,284254	22,550000	53,825000
1,491061	-493,376962	180,554	-0,283966	22,550000	53,825000
1,488071	-495,829939	180,704	-0,285001	22,550000	53,825000
1,485064	-496,558890	180,855	-0,285309	22,550000	53,825000
1,482092	-498,573339	181,006	-0,286159	22,550000	53,825000
1,479031	-499,773215	181,156	-0,286666	22,550000	53,825000
1,476059	-501,497242	181,306	-0,287393	22,550000	53,825000
1,473047	-503,268707	181,456	-0,288141	22,550000	53,800000
1,470088	-506,834780	181,606	-0,289646	22,550000	53,800000
1,467064	-509,084114	181,756	-0,290595	22,550000	53,800000
1,464081	-508,629388	181,906	-0,290403	22,550000	53,800000
1,461087	-510,259692	182,056	-0,291091	22,550000	53,800000
1,458045	-512,485884	182,206	-0,292030	22,550000	53,800000
1,455061	-514,845138	182,357	-0,293026	22,550000	53,800000
1,452077	-515,401687	182,507	-0,293261	22,550000	53,800000
1,449062	-519,054539	182,657	-0,294802	22,550000	53,800000
1,446057	-518,207568	182,808	-0,294445	22,550000	53,800000
1,443068	-520,927827	182,958	-0,295593	22,550000	53,800000
1,440085	-521,358255	183,108	-0,295774	22,550000	53,800000
1,437069	-524,853747	183,258	-0,297250	22,550000	53,800000
1,434074	-524,477701	183,408	-0,297091	22,550000	53,785000
1,431092	-528,545940	183,558	-0,298808	22,550000	53,785000
1,428083	-530,128804	183,709	-0,299476	22,550000	53,785000
1,425055	-529,839538	183,860	-0,299354	22,550000	53,785000
1,422051	-531,179419	184,010	-0,299919	22,550000	53,785000
1,419030	-534,847314	184,160	-0,301467	22,550000	53,785000
1,416080	-536,971684	184,310	-0,302363	22,550000	53,785000
1,413063	-538,515208	184,460	-0,303015	22,550000	53,785000
1,410063	-539,895586	184,611	-0,303597	22,550000	53,785000
1,407067	-539,582022	184,762	-0,303465	22,550000	53,785000
1,404123	-542,396003	184,912	-0,304652	22,550000	53,785000
1,401062	-542,747751	185,062	-0,304801	22,550000	53,785000
1,398085	-545,797773	185,212	-0,306088	22,550000	53,785000
1,395053	-547,905945	185,362	-0,306978	22,550000	53,785000
1,392069	-546,824089	185,512	-0,306521	22,540000	53,800000
1,389085	-548,940360	185,662	-0,307414	22,540000	53,800000
1,386067	-549,990975	185,812	-0,307857	22,540000	53,800000
1,383111	-553,125463	185,963	-0,309180	22,540000	53,800000
1,380087	-554,199219	186,113	-0,309633	22,540000	53,800000
1,377066	-554,113596	186,263	-0,309597	22,540000	53,800000
1,374080	-557,233042	186,413	-0,310914	22,540000	53,800000
1,371034	-558,439860	186,563	-0,311423	22,540000	53,800000
1,368076	-559,239392	186,713	-0,311760	22,540000	53,800000
1,365066	-558,871445	186,863	-0,311605	22,540000	53,800000
1,362045	-562,491901	187,014	-0,313133	22,540000	53,800000
1,359100	-563,887320	187,164	-0,313722	22,540000	53,800000
1,356120	-563,110930	187,314	-0,313394	22,540000	53,800000
1,353059	-564,718093	187,464	-0,314072	22,540000	53,800000
1,350068	-568,261025	187,614	-0,315567	22,540000	53,800000
1,347090	-567,994900	187,764	-0,315455	22,540000	53,800000
1,344069	-571,357329	187,915	-0,316874	22,540000	53,800000
1,341017	-570,761441	188,065	-0,316623	22,540000	53,800000
1,338081	-574,138913	188,215	-0,318048	22,540000	53,800000
1,335036	-573,762867	188,365	-0,317889	22,540000	53,800000
1,332102	-575,385071	188,515	-0,318574	22,540000	53,800000
1,328999	-577,070914	188,665	-0,319285	22,540000	53,800000
1,326086	-579,390829	188,815	-0,320264	22,540000	53,800000
1,323081	-579,280908	188,966	-0,320218	22,540000	53,800000
1,320063	-581,249074	189,116	-0,321048	22,540000	53,800000
1,317067	-582,212909	189,266	-0,321455	22,540000	53,800000
1,314119	-583,498408	189,417	-0,321998	22,550000	53,785000
1,311093	-586,813398	189,567	-0,323396	22,550000	53,785000
1,308091	-586,296190	189,717	-0,323178	22,550000	53,785000
1,305003	-587,322506	189,867	-0,323611	22,550000	53,785000
1,302028	-590,192026	190,017	-0,324822	22,550000	53,785000
1,299052	-590,207068	190,167	-0,324829	22,550000	53,785000
1,296079	-592,237717	190,317	-0,325686	22,550000	53,785000
1,293018	-595,224100	190,468	-0,326946	22,550000	53,785000
1,290001	-596,179836	190,618	-0,327349	22,550000	53,785000
1,287094	-599,087539	190,768	-0,328576	22,550000	53,785000
1,284079	-598,476609	190,919	-0,328318	22,550000	53,785000
1,281082	-602,136404	191,070	-0,329863	22,550000	53,785000
1,278086	-601,980200	191,220	-0,329797	22,550000	53,785000
1,275087	-605,616854	191,370	-0,331332	22,550000	53,785000
1,272050	-605,420153	191,520	-0,331249	22,550000	53,800000
1,269031	-606,572590	191,670	-0,331735	22,550000	53,800000
1,266089	-608,258433	191,820	-0,332446	22,550000	53,800000
1,263088	-611,385978	191,970	-0,333766	22,550000	53,800000
1,260049	-611,118696	192,120	-0,333653	22,550000	53,800000
1,257068	-614,160619	192,270	-0,334937	22,550000	53,800000
1,254115	-613,533490	192,420	-0,334672	22,550000	53,800000
1,251077	-616,871621	192,570	-0,336081	22,550000	53,800000
1,248071	-615,789766	192,721	-0,335625	22,550000	53,800000
1,245052	-618,871029	192,872	-0,336925	22,550000	53,800000
1,242039	-618,133979	193,022	-0,336614	22,550000	53,800000
1,239087	-619,247075	193,172	-0,337083	22,550000	53,800000
1,236054	-620,337030	193,322	-0,337543	22,550000	53,800000
1,233015	-621,951135	193,473	-0,338225	22,550000	53,785000
1,230071	-622,899928	193,623	-0,338625	22,550000	53,785000
1,227061	-624,819498	193,773	-0,339435	22,550000	53,785000
1,224107	-627,641578	193,924	-0,340626	22,550000	53,785000
1,221081	-628,378629	194,074	-0,340937	22,550000	53,785000
1,218127	-627,923902	194,224	-0,340745	22,550000	53,785000
1,215058	-629,428086	194,374	-0,341380	22,550000	53,785000
1,212115	-631,128971	194,525	-0,342098	22,550000	53,785000
1,209098	-633,198960	194,675	-0,342971	22,550000	53,785000
1,206045	-633,809890	194,825	-0,343229	22,550000	53,785000
1,203121	-635,753758	194,975	-0,344049	22,550000	53,785000
1,200048	-639,234208	195,126	-0,345518	22,550000	53,785000
1,197065	-638,434677	195,277	-0,345181	22,550000	53,785000
1,194091	-639,531574	195,427	-0,345644	22,550000	53,785000
1,191092	-643,474850	195,578	-0,347308	22,550000	53,785000
1,188083	-642,361754	195,728	-0,346838	22,550000	53,785000
1,185110	-645,888487	195,879	-0,348326	22,550000	53,785000
1,182030	-646,750500	196,030	-0,348690	22,550000	53,785000
1,179092	-645,872288	196,180	-0,348319	22,550000	53,785000
1,176090	-648,748750	196,330	-0,349533	22,550000	53,785000
1,173061	-648,004758	196,481	-0,349219	22,550000	53,785000
1,170026	-651,327847	196,632	-0,350622	22,550000	53,785000
1,167048	-652,731367	196,783	-0,351214	22,550000	53,785000
1,164103	-653,498500	196,934	-0,351538	22,550000	53,785000
1,161104	-655,003841	197,084	-0,352173	22,550000	53,785000
1,158132	-654,525974	197,235	-0,351971	22,550000	53,785000
1,155087	-655,967676	197,385	-0,352580	22,550000	53,785000
1,152078	-656,509182	197,535	-0,352808	22,550000	53,785000
1,149060	-659,103321	197,685	-0,353903	22,550000	53,785000
1,146056	-658,789757	197,835	-0,353771	22,550000	53,785000
1,143109	-661,799282	197,985	-0,355041	22,550000	53,785000
1,140087	-661,446377	198,136	-0,354892	22,550000	53,785000
1,137102	-662,825598	198,286	-0,355474	22,550000	53,785000
1,134046	-663,076681	198,437	-0,355580	22,550000	53,785000
1,131122	-664,315897	198,587	-0,356103	22,550000	53,785000
1,128043	-665,805039	198,737	-0,356731	22,550000	53,785000
1,125061	-666,980617	198,887	-0,357227	22,550000	53,785000
1,122082	-668,234875	199,037	-0,357756	22,550000	53,785000
1,119074	-671,479284	199,188	-0,359125	22,550000	53,785000
1,116072	-670,978275	199,338	-0,358914	22,550000	53,785000
1,113123	-674,371945	199,488	-0,360346	22,550000	53,785000
1,110084	-673,838539	199,638	-0,360121	22,550000	53,785000
1,107086	-675,147179	199,788	-0,360673	22,550000	53,785000
1,104085	-678,235384	199,938	-0,361977	22,550000	53,785000
1,101095	-677,593213	200,089	-0,361706	22,550000	53,785000
1,098044	-678,415886	200,239	-0,362053	22,550000	53,785000
1,095037	-680,727701	200,390	-0,363028	22,550000	53,785000
1,092058	-681,033166	200,541	-0,363157	22,550000	53,785000
1,089016	-680,727701	200,691	-0,363028	22,550000	53,785000
1,086042	-682,978192	200,841	-0,363978	22,550000	53,785000
1,083084	-683,213076	200,991	-0,364077	22,550000	53,785000
1,080014	-683,526640	201,141	-0,364209	22,550000	53,785000
1,077059	-685,556132	201,292	-0,365066	22,550000	53,785000
1,074098	-685,838455	201,443	-0,365185	22,550000	53,785000
1,071019	-687,138996	201,593	-0,365734	22,550000	53,785000
1,068123	-687,813564	201,744	-0,366019	22,550000	53,785000
1,065080	-690,783749	201,895	-0,367272	22,550000	53,785000
1,062100	-691,513857	202,045	-0,367580	22,550000	53,785000
1,059034	-689,819914	202,195	-0,366865	22,550000	53,785000
1,056075	-692,344629	202,345	-0,367931	22,550000	53,785000
1,053046	-690,847388	202,495	-0,367299	22,550000	53,785000
1,050008	-690,329023	202,646	-0,367080	22,550000	53,785000
1,047063	-691,364596	202,796	-0,367517	22,550000	53,785000
1,044059	-692,156028	202,946	-0,367851	22,550000	53,785000
1,041030	-694,162378	203,096	-0,368698	22,550000	53,785000
1,038054	-694,953810	203,246	-0,369032	22,550000	53,785000
1,035104	-693,778232	203,396	-0,368536	22,550000	53,785000
1,032101	-695,188694	203,546	-0,369131	22,550000	53,785000
1,029042	-695,847064	203,697	-0,369409	22,550000	53,785000
1,026058	-696,286748	203,847	-0,369594	22,550000	53,785000
1,023085	-699,217593	203,997	-0,370831	22,550000	53,785000
1,020076	-700,056465	204,147	-0,371185	22,550000	53,785000
1,017087	-698,143837	204,298	-0,370378	22,550000	53,785000
1,014072	-698,394920	204,448	-0,370484	22,550000	53,785000
1,011086	-698,033916	204,598	-0,370332	22,550000	53,785000
1,008060	-698,802207	204,748	-0,370656	22,550000	53,785000
1,005058	-699,931502	204,898	-0,371132	22,550000	53,785000
1,002062	-698,058214	205,048	-0,370342	22,550000	53,785000
0,999076	-697,196201	205,199	-0,369978	22,550000	53,785000
0,996156	-696,685936	205,350	-0,369763	22,550000	53,785000
0,993059	-697,454227	205,501	-0,370087	22,550000	53,785000
0,990090	-696,810899	205,652	-0,369815	22,550000	53,785000
0,987098	-696,467250	205,802	-0,369670	22,550000	53,785000
0,984059	-695,549698	205,952	-0,369283	22,550000	53,785000
0,981031	-697,446127	206,102	-0,370083	22,550000	53,785000
0,978117	-695,800781	206,252	-0,369389	22,550000	53,785000
0,975068	-696,780815	206,403	-0,369803	22,550000	53,785000
0,972087	-695,196794	206,554	-0,369134	22,550000	53,785000
0,969125	-695,219935	206,705	-0,369144	22,550000	53,785000
0,966069	-694,201718	206,855	-0,368714	22,550000	53,785000
0,963101	-692,532074	207,005	-0,368010	22,550000	53,785000
0,960056	-689,240225	207,155	-0,366621	22,550000	53,785000
0,957034	-686,050198	207,305	-0,365274	22,550000	53,785000
0,954076	-683,792765	207,456	-0,364322	22,550000	53,785000
0,951139	-678,540849	207,606	-0,362105	22,550000	53,785000
0,948087	-674,324506	207,756	-0,360326	22,550000	53,785000
0,945095	-666,181085	207,906	-0,356890	22,550000	53,785000
0,942041	-660,310140	208,056	-0,354412	22,550000	53,785000
0,939077	-647,197127	208,206	-0,348878	22,550000	53,785000
0,936048	-623,056132	208,356	-0,338691	22,550000	53,785000
0,933069	-0,713909	208,506	-0,076063	22,550000	53,785000
0,930046	-0,619030	208,656	-0,076022	22,550000	53,785000
0,927087	-0,720851	208,806	-0,076065	22,550000	53,785000
0,924097	-0,642171	208,957	-0,076032	22,550000	53,785000
0,921103	-0,477868	209,107	-0,075963	22,550000	53,785000
0,918075	-0,517208	209,257	-0,075979	22,550000	53,785000
0,915064	-0,502166	209,407	-0,075973	22,550000	53,815000
0,912094	-0,610930	209,557	-0,076019	22,550000	53,815000
0,909104	-0,627129	209,708	-0,076026	22,550000	53,815000
0,906079	-0,548449	209,858	-0,075993	22,550000	53,815000
0,903090	-0,367947	210,008	-0,075917	22,550000	53,815000
0,900087	-0,399187	210,158	-0,075930	22,550000	53,815000
0,897072	-0,367947	210,308	-0,075917	22,550000	53,815000
0,894056	-0,164303	210,458	-0,075831	22,550000	53,815000
0,891072	-0,392245	210,608	-0,075927	22,550000	53,815000
0,888080	-0,352905	210,758	-0,075910	22,550000	53,815000
0,885059	-0,336706	210,908	-0,075903	22,550000	53,815000
0,882109	-0,290423	211,058	-0,075884	22,550000	53,815000
0,879112	-0,266125	211,208	-0,075874	22,550000	53,815000
0,876072	-0,172403	211,359	-0,075834	22,550000	53,815000
0,873074	-0,313564	211,509	-0,075894	22,550000	53,825000
0,870105	-0,242984	211,660	-0,075864	22,550000	53,825000
0,867059	-0,149261	211,810	-0,075824	22,550000	53,825000
0,864099	-0,321664	211,960	-0,075897	22,550000	53,825000
0,861075	-0,359847	212,110	-0,075913	22,550000	53,825000
0,858094	-0,259182	212,260	-0,075871	22,550000	53,825000
0,855072	-0,078680	212,410	-0,075794	22,550000	53,825000
0,852097	-0,242984	212,560	-0,075864	22,550000	53,825000
0,849100	-0,454726	212,711	-0,075953	22,550000	53,825000
0,846076	-0,282324	212,862	-0,075880	22,550000	53,825000
0,843044	-0,242984	213,012	-0,075864	22,550000	53,825000
0,840071	-0,242984	213,162	-0,075864	22,550000	53,825000
0,837075	-0,141162	213,312	-0,075821	22,550000	53,825000
0,834081	-0,047440	213,462	-0,075781	22,540000	53,800000
0,831084	-0,234884	213,613	-0,075860	22,540000	53,800000
0,828078	-0,141162	213,763	-0,075821	22,540000	53,800000
0,825083	-0,344805	213,913	-0,075907	22,540000	53,800000
0,822112	-0,118021	214,063	-0,075811	22,540000	53,800000
0,819034	-0,290423	214,213	-0,075884	22,540000	53,800000
0,816064	-0,062481	214,364	-0,075788	22,540000	53,800000
0,813090	-0,266125	214,515	-0,075874	22,540000	53,800000
0,810089	-0,242984	214,665	-0,075864	22,540000	53,800000
0,807108	-0,298523	214,815	-0,075887	22,540000	53,800000
0,804098	-0,126120	214,965	-0,075814	22,540000	53,800000
0,801077	-0,298523	215,116	-0,075887	22,540000	53,800000
0,798058	-0,234884	215,266	-0,075860	22,540000	53,800000
0,795119	-0,149261	215,416	-0,075824	22,540000	53,800000
0,792107	-0,016199	215,567	-0,075768	22,540000	53,800000
0,789040	0,219842	215,717	-0,075668	22,540000	53,800000
0,786091	-0,234884	215,867	-0,075860	22,540000	53,800000
0,783073	-0,344805	216,017	-0,075907	22,540000	53,800000
0,780056	-0,211743	216,167	-0,075851	22,540000	53,800000
0,777140	-0,266125	216,318	-0,075874	22,540000	53,800000
0,774070	-0,226785	216,468	-0,075857	22,540000	53,800000
0,771098	-0,195544	216,618	-0,075844	22,540000	53,800000
0,768086	-0,086780	216,768	-0,075798	22,540000	53,800000
0,765023	0,039340	216,918	-0,075745	22,540000	53,800000
0,762089	-0,062481	217,068	-0,075788	22,540000	53,800000
0,759124	-0,242984	217,218	-0,075864	22,540000	53,800000
0,756099	-0,078680	217,370	-0,075794	22,540000	53,800000
0,753112	-0,149261	217,520	-0,075824	22,540000	53,825000
0,750087	-0,266125	217,670	-0,075874	22,540000	53,825000
0,747100	-0,054382	217,820	-0,075784	22,540000	53,825000
0,744125	-0,259182	217,971	-0,075871	22,540000	53,825000
0,741061	0,023141	218,122	-0,075751	22,540000	53,825000
0,738110	-0,070581	218,274	-0,075791	22,540000	53,825000
0,735122	-0,062481	218,424	-0,075788	22,540000	53,825000
0,732027	-0,062481	218,574	-0,075788	22,540000	53,825000
0,729116	-0,336706	218,724	-0,075903	22,540000	53,825000
0,726052	-0,211743	218,874	-0,075851	22,540000	53,825000
0,723041	0,016199	219,024	-0,075754	22,540000	53,825000
0,720089	0,141162	219,175	-0,075702	22,540000	53,825000
0,717046	-0,164303	219,325	-0,075831	22,540000	53,825000
0,714090	-0,086780	219,475	-0,075798	22,540000	53,785000
0,711115	-0,118021	219,625	-0,075811	22,540000	53,785000
0,708066	-0,329763	219,775	-0,075900	22,540000	53,785000
0,705074	-0,062481	219,926	-0,075788	22,540000	53,785000
0,702146	-0,251083	220,076	-0,075867	22,540000	53,785000
0,699046	-0,298523	220,226	-0,075887	22,540000	53,785000
0,696090	-0,031241	220,376	-0,075774	22,540000	53,785000
0,693050	-0,118021	220,527	-0,075811	22,540000	53,785000
0,690107	0,000000	220,677	-0,075761	22,540000	53,785000
0,687141	-0,259182	220,827	-0,075871	22,540000	53,785000
0,684077	-0,062481	220,977	-0,075788	22,540000	53,785000
0,681023	0,000000	221,128	-0,075761	22,540000	53,785000
0,678147	-0,305465	221,278	-0,075890	22,540000	53,785000
0,675082	-0,054382	221,428	-0,075784	22,560000	53,820000
0,672093	-0,039340	221,578	-0,075778	22,560000	53,820000
0,669036	-0,062481	221,728	-0,075788	22,560000	53,820000
0,666098	-0,274224	221,878	-0,075877	22,560000	53,820000
0,663080	-0,282324	222,028	-0,075880	22,560000	53,820000
0,660086	0,211743	222,178	-0,075672	22,560000	53,820000
0,657101	0,070581	222,328	-0,075731	22,560000	53,820000
0,654141	-0,203643	222,478	-0,075847	22,560000	53,820000
0,651112	-0,290423	222,628	-0,075884	22,560000	53,820000
0,648057	-0,054382	222,778	-0,075784	22,560000	53,820000
0,645121	-0,313564	222,928	-0,075894	22,560000	53,820000
0,642104	-0,047440	223,078	-0,075781	22,560000	53,820000
0,639050	-0,211743	223,228	-0,075851	22,560000	53,820000
0,636109	-0,016199	223,378	-0,075768	22,560000	53,820000
0,633138	-0,062481	223,528	-0,075788	22,550000	53,785000
0,630059	-0,062481	223,678	-0,075788	22,550000	53,785000
0,627065	-0,133062	223,828	-0,075817	22,550000	53,785000
0,624104	-0,023141	223,978	-0,075771	22,550000	53,785000
0,621063	-0,149261	224,128	-0,075824	22,550000	53,785000
0,618021	-0,359847	224,280	-0,075913	22,550000	53,785000
0,615082	-0,141162	224,430	-0,075821	22,550000	53,785000
0,612086	-0,251083	224,580	-0,075867	22,550000	53,785000
0,609078	-0,156204	224,730	-0,075827	22,550000	53,785000
0,606103	-0,016199	224,880	-0,075768	22,550000	53,785000
0,603113	-0,180502	225,031	-0,075837	22,550000	53,785000
0,600077	-0,078680	225,183	-0,075794	22,550000	53,785000
0,597103	-0,016199	225,334	-0,075768	22,550000	53,785000
0,594101	0,016199	225,484	-0,075754	22,550000	53,760000
0,591104	-0,298523	225,634	-0,075887	22,550000	53,760000
0,588107	0,016199	225,784	-0,075754	22,550000	53,760000
0,585005	-0,226785	225,934	-0,075857	22,550000	53,760000
0,582046	0,047440	226,084	-0,075741	22,550000	53,760000
0,579113	-0,133062	226,234	-0,075817	22,550000	53,760000
0,576077	0,274224	226,384	-0,075646	22,550000	53,760000
0,573126	-0,118021	226,534	-0,075811	22,550000	53,760000
0,570068	-0,109921	226,685	-0,075808	22,550000	53,760000
0,567091	-0,187444	226,835	-0,075840	22,550000	53,760000
0,564099	-0,149261	226,985	-0,075824	22,550000	53,760000
0,561116	-0,047440	227,136	-0,075781	22,550000	53,760000
0,558092	-0,141162	227,287	-0,075821	22,550000	53,760000
0,555064	-0,109921	227,438	-0,075808	22,550000	53,800000
0,552105	-0,039340	227,588	-0,075778	22,550000	53,800000
0,549088	0,164303	227,738	-0,075692	22,550000	53,800000
0,546105	-0,156204	227,889	-0,075827	22,550000	53,800000
0,543083	0,016199	228,039	-0,075754	22,550000	53,800000
0,540114	-0,070581	228,189	-0,075791	22,550000	53,800000
0,537060	0,070581	228,339	-0,075731	22,550000	53,800000
0,534053	-0,054382	228,490	-0,075784	22,550000	53,800000
0,531017	-0,016199	228,641	-0,075768	22,550000	53,800000
0,528072	-0,086780	228,791	-0,075798	22,550000	53,800000
0,525068	-0,259182	228,942	-0,075871	22,550000	53,800000
0,522089	0,039340	229,093	-0,075745	22,550000	53,800000
0,519114	0,149261	229,243	-0,075698	22,550000	53,800000
0,515993	-0,211743	229,394	-0,075851	22,550000	53,800000
0,513051	-0,047440	229,544	-0,075781	22,550000	53,800000
0,510061	-0,242984	229,694	-0,075864	22,550000	53,800000
0,507038	0,234884	229,844	-0,075662	22,550000	53,800000
0,504088	-0,016199	229,994	-0,075768	22,550000	53,800000
0,501073	0,172403	230,144	-0,075688	22,550000	53,800000
0,498055	-0,133062	230,294	-0,075817	22,550000	53,800000
0,495071	-0,133062	230,444	-0,075817	22,550000	53,800000
0,492086	0,109921	230,594	-0,075715	22,550000	53,800000
