Quasi static measurement routine
Tip parameters (shape,radius, material...) 
12.09.2022

Piezo position[nm]	MEMS displ.[nm]	Time[ms]	Cap [pf]	Temp [°C]	Rh [%]
eoh
0,652144	-0,124963	0,211	-0,075953	22,310000	51,375000
0,655128	-0,124963	0,361	-0,075953	22,310000	51,375000
0,658110	-0,069424	0,512	-0,075930	22,310000	51,375000
0,661119	0,024298	0,662	-0,075890	22,310000	51,375000
0,664109	-0,069424	0,812	-0,075930	22,310000	51,375000
0,667129	-0,077523	0,963	-0,075933	22,300000	51,405000
0,670141	-0,038183	1,114	-0,075917	22,300000	51,405000
0,673053	-0,148104	1,264	-0,075963	22,300000	51,405000
0,676157	-0,336706	1,414	-0,076042	22,300000	51,405000
0,679123	-0,116864	1,564	-0,075950	22,300000	51,405000
0,682111	0,047440	1,715	-0,075880	22,300000	51,405000
0,685092	0,094879	1,865	-0,075860	22,300000	51,405000
0,688104	0,298523	2,015	-0,075774	22,300000	51,405000
0,691078	-0,140005	2,165	-0,075959	22,300000	51,405000
0,694105	-0,203643	2,316	-0,075986	22,300000	51,405000
0,697155	-0,030084	2,467	-0,075913	22,300000	51,405000
0,700109	-0,101822	2,617	-0,075943	22,300000	51,405000
0,703120	-0,101822	2,768	-0,075943	22,300000	51,405000
0,706118	-0,023141	2,918	-0,075910	22,310000	51,405000
0,709146	-0,258025	3,068	-0,076009	22,310000	51,405000
0,712127	-0,281167	3,218	-0,076019	22,310000	51,405000
0,715135	0,267282	3,368	-0,075788	22,310000	51,405000
0,718084	-0,101822	3,518	-0,075943	22,310000	51,405000
0,721143	-0,046283	3,668	-0,075920	22,310000	51,405000
0,724167	-0,062481	3,818	-0,075927	22,310000	51,405000
0,727032	-0,046283	3,968	-0,075920	22,310000	51,405000
0,730103	-0,124963	4,118	-0,075953	22,310000	51,405000
0,733082	-0,038183	4,268	-0,075917	22,310000	51,405000
0,736059	-0,077523	4,419	-0,075933	22,310000	51,405000
0,739146	-0,116864	4,569	-0,075950	22,310000	51,405000
0,742084	0,086780	4,719	-0,075864	22,310000	51,405000
0,745114	0,126120	4,870	-0,075847	22,310000	51,405000
0,748123	-0,281167	5,021	-0,076019	22,300000	51,365000
0,751122	0,251083	5,172	-0,075794	22,300000	51,365000
0,754104	-0,328606	5,322	-0,076039	22,300000	51,365000
0,757126	-0,336706	5,472	-0,076042	22,300000	51,365000
0,760167	0,086780	5,622	-0,075864	22,300000	51,365000
0,763117	-0,258025	5,772	-0,076009	22,300000	51,365000
0,766141	-0,258025	5,922	-0,076009	22,300000	51,365000
0,769110	-0,226785	6,072	-0,075996	22,300000	51,365000
0,772115	-0,108764	6,222	-0,075946	22,300000	51,365000
0,775117	0,109921	6,372	-0,075854	22,300000	51,365000
0,778188	-0,023141	6,522	-0,075910	22,300000	51,365000
0,781139	0,047440	6,672	-0,075880	22,300000	51,365000
0,784092	-0,085623	6,822	-0,075937	22,300000	51,365000
0,787139	-0,266125	6,972	-0,076013	22,310000	51,375000
0,790106	-0,140005	7,123	-0,075959	22,310000	51,375000
0,793158	0,203643	7,273	-0,075814	22,310000	51,375000
0,796124	-0,164303	7,423	-0,075970	22,310000	51,375000
0,799178	-0,085623	7,574	-0,075937	22,310000	51,375000
0,802154	0,063639	7,724	-0,075874	22,310000	51,375000
0,805090	0,039340	7,874	-0,075884	22,310000	51,375000
0,808091	-0,108764	8,025	-0,075946	22,310000	51,375000
0,811171	0,063639	8,175	-0,075874	22,310000	51,375000
0,814107	-0,124963	8,326	-0,075953	22,310000	51,375000
0,817128	-0,195544	8,476	-0,075983	22,310000	51,375000
0,820134	-0,156204	8,626	-0,075966	22,310000	51,375000
0,823100	-0,297366	8,776	-0,076026	22,310000	51,375000
0,826138	-0,336706	8,926	-0,076042	22,310000	51,390000
0,829090	-0,085623	9,076	-0,075937	22,310000	51,390000
0,832106	0,070581	9,226	-0,075871	22,310000	51,390000
0,835058	-0,140005	9,376	-0,075959	22,310000	51,390000
0,838111	-0,006942	9,527	-0,075903	22,310000	51,390000
0,841103	-0,266125	9,677	-0,076013	22,310000	51,390000
0,844125	-0,164303	9,827	-0,075970	22,310000	51,390000
0,847111	0,047440	9,977	-0,075880	22,310000	51,390000
0,850075	-0,077523	10,127	-0,075933	22,310000	51,390000
0,853135	-0,140005	10,278	-0,075959	22,310000	51,390000
0,856110	0,024298	10,429	-0,075890	22,310000	51,390000
0,859137	-0,077523	10,579	-0,075933	22,310000	51,390000
0,862126	0,016199	10,730	-0,075894	22,310000	51,390000
0,865126	-0,124963	10,880	-0,075953	22,310000	51,390000
0,868150	-0,101822	11,031	-0,075943	22,310000	51,390000
0,871106	0,180502	11,182	-0,075824	22,310000	51,390000
0,874120	-0,195544	11,332	-0,075983	22,310000	51,390000
0,877100	-0,172403	11,482	-0,075973	22,310000	51,390000
0,880107	-0,062481	11,632	-0,075927	22,310000	51,390000
0,883114	-0,258025	11,782	-0,076009	22,310000	51,390000
0,886138	0,063639	11,932	-0,075874	22,310000	51,390000
0,889167	-0,430428	12,083	-0,076082	22,310000	51,390000
0,892071	-0,226785	12,233	-0,075996	22,310000	51,390000
0,895105	-0,054382	12,383	-0,075923	22,310000	51,390000
0,898113	-0,289266	12,534	-0,076022	22,310000	51,390000
0,901115	-0,156204	12,684	-0,075966	22,310000	51,390000
0,904129	-0,156204	12,834	-0,075966	22,310000	51,390000
0,907140	-0,195544	12,984	-0,075983	22,310000	51,390000
0,910098	-0,085623	13,135	-0,075937	22,310000	51,390000
0,913114	-0,116864	13,285	-0,075950	22,310000	51,390000
0,916130	-0,085623	13,436	-0,075937	22,310000	51,390000
0,919139	-0,297366	13,586	-0,076026	22,310000	51,390000
0,922120	-0,140005	13,736	-0,075959	22,310000	51,390000
0,925134	0,118021	13,886	-0,075851	22,310000	51,390000
0,928057	-0,274224	14,037	-0,076016	22,310000	51,390000
0,931080	-0,234884	14,187	-0,076000	22,310000	51,390000
0,934115	0,055539	14,337	-0,075877	22,310000	51,390000
0,937112	-0,038183	14,487	-0,075917	22,310000	51,390000
0,940086	-0,234884	14,638	-0,076000	22,310000	51,390000
0,943161	-0,062481	14,788	-0,075927	22,310000	51,390000
0,946147	-0,203643	14,938	-0,075986	22,310000	51,390000
0,949099	-0,054382	15,088	-0,075923	22,310000	51,390000
0,952140	-0,195544	15,239	-0,075983	22,310000	51,390000
0,955128	-0,054382	15,390	-0,075923	22,310000	51,390000
0,958141	-0,101822	15,541	-0,075943	22,310000	51,390000
0,961161	0,047440	15,692	-0,075880	22,310000	51,390000
0,964094	-0,054382	15,842	-0,075923	22,310000	51,390000
0,967072	-0,015042	15,992	-0,075907	22,310000	51,390000
0,970095	-0,085623	16,142	-0,075937	22,310000	51,390000
0,973076	-0,187444	16,292	-0,075979	22,310000	51,390000
0,976121	-0,305465	16,442	-0,076029	22,310000	51,390000
0,979149	-0,093722	16,592	-0,075940	22,310000	51,390000
0,982118	-0,015042	16,743	-0,075907	22,310000	51,390000
0,985106	-0,187444	16,893	-0,075979	22,310000	51,350000
0,988146	0,039340	17,044	-0,075884	22,310000	51,350000
0,991129	0,000000	17,195	-0,075900	22,310000	51,350000
0,994046	-0,133062	17,346	-0,075957	22,310000	51,350000
0,997159	-0,211743	17,496	-0,075990	22,310000	51,350000
1,000091	-0,226785	17,646	-0,075996	22,310000	51,350000
1,003128	-0,116864	17,796	-0,075950	22,310000	51,350000
1,006093	-0,140005	17,946	-0,075959	22,310000	51,350000
1,009122	-0,359847	18,096	-0,076052	22,310000	51,350000
1,012151	-0,124963	18,246	-0,075953	22,310000	51,350000
1,015166	-0,172403	18,396	-0,075973	22,310000	51,350000
1,018118	-0,281167	18,546	-0,076019	22,310000	51,350000
1,021135	-0,054382	18,696	-0,075923	22,310000	51,350000
1,024143	-0,038183	18,846	-0,075917	22,310000	51,350000
1,027096	-0,116864	18,996	-0,075950	22,310000	51,350000
1,030169	-0,023141	19,146	-0,075910	22,310000	51,350000
1,033132	-0,218685	19,296	-0,075993	22,310000	51,350000
1,036122	-0,195544	19,446	-0,075983	22,310000	51,350000
1,039114	-0,211743	19,596	-0,075990	22,310000	51,350000
1,042111	0,039340	19,746	-0,075884	22,310000	51,350000
1,045117	-0,172403	19,896	-0,075973	22,310000	51,350000
1,048101	-0,249926	20,047	-0,076006	22,310000	51,350000
1,051107	-0,172403	20,197	-0,075973	22,310000	51,350000
1,054157	-0,124963	20,347	-0,075953	22,310000	51,350000
1,057138	0,039340	20,497	-0,075884	22,310000	51,350000
1,060110	0,000000	20,647	-0,075900	22,310000	51,350000
1,063087	-0,093722	20,798	-0,075940	22,310000	51,350000
1,066122	-0,305465	20,948	-0,076029	22,300000	51,405000
1,069142	-0,054382	21,098	-0,075923	22,300000	51,405000
1,072136	-0,274224	21,248	-0,076016	22,300000	51,405000
1,075141	-0,266125	21,399	-0,076013	22,300000	51,405000
1,078080	-0,133062	21,550	-0,075957	22,300000	51,405000
1,081107	-0,140005	21,701	-0,075959	22,300000	51,405000
1,084086	-0,305465	21,852	-0,076029	22,300000	51,405000
1,087153	-0,226785	22,002	-0,075996	22,300000	51,405000
1,090117	-0,148104	22,152	-0,075963	22,300000	51,405000
1,093156	-0,241826	22,302	-0,076002	22,300000	51,405000
1,096119	-0,101822	22,452	-0,075943	22,300000	51,405000
1,099100	-0,203643	22,602	-0,075986	22,300000	51,405000
1,102146	-0,116864	22,752	-0,075950	22,300000	51,405000
1,105161	-0,258025	22,902	-0,076009	22,300000	51,405000
1,108157	-0,344805	23,052	-0,076046	22,300000	51,405000
1,111129	-0,351748	23,202	-0,076049	22,300000	51,405000
1,114107	-0,384145	23,352	-0,076063	22,300000	51,405000
1,117091	-0,218685	23,503	-0,075993	22,300000	51,405000
1,120127	-0,548449	23,654	-0,076132	22,300000	51,405000
1,123089	-0,046283	23,805	-0,075920	22,300000	51,405000
1,126126	-0,234884	23,956	-0,076000	22,300000	51,405000
1,129139	-0,062481	24,106	-0,075927	22,300000	51,405000
1,132119	-0,477868	24,256	-0,076102	22,300000	51,405000
1,135078	-0,218685	24,406	-0,075993	22,300000	51,405000
1,138114	-0,172403	24,556	-0,075973	22,300000	51,405000
1,141112	-0,195544	24,707	-0,075983	22,300000	51,405000
1,144108	-0,124963	24,857	-0,075953	22,300000	51,405000
1,147139	-0,108764	25,008	-0,075946	22,300000	51,405000
1,150091	0,142319	25,158	-0,075840	22,300000	51,405000
1,153136	-0,351748	25,309	-0,076049	22,300000	51,405000
1,156132	-0,187444	25,460	-0,075979	22,300000	51,405000
1,159073	-0,093722	25,610	-0,075940	22,300000	51,405000
1,162131	-0,249926	25,760	-0,076006	22,300000	51,405000
1,165133	-0,195544	25,910	-0,075983	22,300000	51,405000
1,168168	-0,258025	26,060	-0,076009	22,300000	51,405000
1,171109	-0,320507	26,210	-0,076036	22,300000	51,405000
1,174156	-0,312407	26,360	-0,076032	22,300000	51,405000
1,177154	-0,234884	26,511	-0,076000	22,300000	51,405000
1,180091	-0,289266	26,661	-0,076022	22,300000	51,405000
1,183175	0,031241	26,811	-0,075887	22,300000	51,405000
1,186084	-0,312407	26,962	-0,076032	22,300000	51,405000
1,189121	-0,179345	27,112	-0,075976	22,300000	51,405000
1,192129	-0,156204	27,262	-0,075966	22,300000	51,405000
1,195194	-0,085623	27,412	-0,075937	22,300000	51,405000
1,198119	-0,172403	27,562	-0,075973	22,300000	51,405000
1,201133	-0,101822	27,712	-0,075943	22,300000	51,405000
1,204157	-0,211743	27,862	-0,075990	22,300000	51,405000
1,207083	-0,133062	28,012	-0,075957	22,300000	51,405000
1,210129	-0,249926	28,162	-0,076006	22,300000	51,405000
1,213139	-0,477868	28,313	-0,076102	22,300000	51,405000
1,216073	-0,289266	28,463	-0,076022	22,300000	51,405000
1,219090	-0,320507	28,614	-0,076036	22,300000	51,405000
1,222057	-0,172403	28,764	-0,075973	22,300000	51,405000
1,225120	-0,351748	28,914	-0,076049	22,300000	51,390000
1,228129	-0,289266	29,064	-0,076022	22,300000	51,390000
1,231122	-0,226785	29,215	-0,075996	22,300000	51,390000
1,234088	-0,148104	29,366	-0,075963	22,300000	51,390000
1,237175	-0,101822	29,516	-0,075943	22,300000	51,390000
1,240096	-0,492910	29,666	-0,076108	22,300000	51,390000
1,243112	-0,187444	29,816	-0,075979	22,300000	51,390000
1,246078	-0,124963	29,966	-0,075953	22,300000	51,390000
1,249097	-0,266125	30,116	-0,076013	22,300000	51,390000
1,252117	-0,195544	30,266	-0,075983	22,300000	51,390000
1,255089	-0,258025	30,416	-0,076009	22,300000	51,390000
1,258152	-0,384145	30,566	-0,076063	22,300000	51,390000
1,261117	-0,266125	30,716	-0,076013	22,300000	51,390000
1,264087	0,039340	30,867	-0,075884	22,300000	51,390000
1,267184	-0,023141	31,018	-0,075910	22,310000	51,405000
1,270123	-0,422329	31,168	-0,076079	22,310000	51,405000
1,273122	-0,203643	31,318	-0,075986	22,310000	51,405000
1,276054	-0,344805	31,468	-0,076046	22,310000	51,405000
1,279074	-0,367947	31,618	-0,076056	22,310000	51,405000
1,282086	-0,101822	31,768	-0,075943	22,310000	51,405000
1,285102	-0,133062	31,918	-0,075957	22,310000	51,405000
1,288138	-0,384145	32,068	-0,076063	22,310000	51,405000
1,291110	-0,289266	32,219	-0,076022	22,310000	51,405000
1,294072	-0,266125	32,370	-0,076013	22,310000	51,405000
1,297111	-0,038183	32,520	-0,075917	22,310000	51,405000
1,300086	-0,156204	32,670	-0,075966	22,310000	51,405000
1,303061	-0,281167	32,821	-0,076019	22,310000	51,405000
1,306140	-0,384145	32,971	-0,076063	22,310000	51,375000
1,309090	-0,320507	33,121	-0,076036	22,310000	51,375000
1,312151	-0,297366	33,273	-0,076026	22,310000	51,375000
1,315134	-0,116864	33,423	-0,075950	22,310000	51,375000
1,318165	-0,148104	33,574	-0,075963	22,310000	51,375000
1,321119	-0,226785	33,725	-0,075996	22,310000	51,375000
1,324018	-0,203643	33,875	-0,075986	22,310000	51,375000
1,327120	-0,320507	34,026	-0,076036	22,310000	51,375000
1,330056	-0,266125	34,177	-0,076013	22,310000	51,375000
1,333147	-0,077523	34,328	-0,075933	22,310000	51,375000
1,336148	-0,415386	34,478	-0,076076	22,310000	51,375000
1,339098	-0,430428	34,628	-0,076082	22,310000	51,375000
1,342098	-0,384145	34,778	-0,076063	22,310000	51,375000
1,345154	-0,179345	34,928	-0,075976	22,310000	51,375000
1,348081	-0,179345	35,078	-0,075976	22,310000	51,375000
1,351132	-0,211743	35,228	-0,075990	22,310000	51,375000
1,354110	-0,258025	35,378	-0,076009	22,310000	51,375000
1,357132	0,047440	35,528	-0,075880	22,310000	51,375000
1,360118	-0,249926	35,678	-0,076006	22,310000	51,375000
1,363103	-0,234884	35,828	-0,076000	22,310000	51,375000
1,366139	-0,085623	35,978	-0,075937	22,310000	51,375000
1,369091	-0,422329	36,128	-0,076079	22,310000	51,375000
1,372081	-0,226785	36,278	-0,075996	22,310000	51,375000
1,375049	-0,187444	36,428	-0,075979	22,310000	51,375000
1,378079	-0,312407	36,578	-0,076032	22,310000	51,375000
1,381067	-0,266125	36,729	-0,076013	22,310000	51,375000
1,384126	-0,195544	36,879	-0,075983	22,310000	51,375000
1,387128	-0,407287	37,029	-0,076072	22,300000	51,390000
1,390088	-0,344805	37,179	-0,076046	22,300000	51,390000
1,393092	-0,453569	37,329	-0,076092	22,300000	51,390000
1,396082	-0,336706	37,479	-0,076042	22,300000	51,390000
1,399080	-0,407287	37,629	-0,076072	22,300000	51,390000
1,402070	-0,344805	37,779	-0,076046	22,300000	51,390000
1,405100	-0,289266	37,929	-0,076022	22,300000	51,390000
1,408074	-0,328606	38,079	-0,076039	22,300000	51,390000
1,411101	-0,179345	38,229	-0,075976	22,300000	51,390000
1,414059	-0,148104	38,379	-0,075963	22,300000	51,390000
1,417089	-0,344805	38,530	-0,076046	22,300000	51,390000
1,420103	-0,164303	38,680	-0,075970	22,300000	51,390000
1,423099	-0,297366	38,830	-0,076026	22,300000	51,390000
1,426079	-0,156204	38,981	-0,075966	22,300000	51,390000
1,429102	-0,367947	39,131	-0,076056	22,300000	51,390000
1,432109	-0,376046	39,281	-0,076059	22,300000	51,390000
1,435114	-0,384145	39,431	-0,076063	22,300000	51,390000
1,438177	-0,407287	39,581	-0,076072	22,300000	51,390000
1,441104	-0,148104	39,731	-0,075963	22,300000	51,390000
1,444134	-0,367947	39,882	-0,076056	22,300000	51,390000
1,447095	-0,274224	40,033	-0,076016	22,300000	51,390000
1,450113	-0,148104	40,185	-0,075963	22,300000	51,390000
1,453110	-0,101822	40,335	-0,075943	22,300000	51,390000
1,456085	-0,156204	40,485	-0,075966	22,300000	51,390000
1,459097	-0,359847	40,636	-0,076052	22,300000	51,390000
1,462061	-0,289266	40,786	-0,076022	22,300000	51,390000
1,465109	-0,376046	40,936	-0,076059	22,300000	51,405000
1,468155	-0,148104	41,086	-0,075963	22,300000	51,405000
1,471066	-0,399187	41,237	-0,076069	22,300000	51,405000
1,474042	-0,266125	41,387	-0,076013	22,300000	51,405000
1,477060	-0,305465	41,537	-0,076029	22,300000	51,405000
1,480117	-0,328606	41,688	-0,076039	22,300000	51,405000
1,483081	-0,328606	41,838	-0,076039	22,300000	51,405000
1,486075	-0,289266	41,988	-0,076022	22,300000	51,405000
1,489130	-0,312407	42,138	-0,076032	22,300000	51,405000
1,492058	-0,430428	42,288	-0,076082	22,300000	51,405000
1,495099	-0,328606	42,438	-0,076039	22,300000	51,405000
1,498101	-0,297366	42,588	-0,076026	22,300000	51,405000
1,501055	-0,116864	42,739	-0,075950	22,300000	51,405000
1,504099	-0,720851	42,889	-0,076205	22,300000	51,405000
1,507100	-0,305465	43,040	-0,076029	22,310000	51,405000
1,510069	-0,218685	43,191	-0,075993	22,310000	51,405000
1,513106	-0,524150	43,342	-0,076122	22,310000	51,405000
1,516074	-0,367947	43,493	-0,076056	22,310000	51,405000
1,519077	-0,384145	43,643	-0,076063	22,310000	51,405000
1,522071	-0,281167	43,794	-0,076019	22,310000	51,405000
1,525091	-0,422329	43,944	-0,076079	22,310000	51,405000
1,528077	-0,407287	44,094	-0,076072	22,310000	51,405000
1,531117	-0,689610	44,244	-0,076191	22,310000	51,405000
1,534088	-0,344805	44,395	-0,076046	22,310000	51,405000
1,537084	-0,164303	44,546	-0,075970	22,310000	51,405000
1,540068	-0,266125	44,697	-0,076013	22,310000	51,405000
1,543087	-0,399187	44,847	-0,076069	22,310000	51,405000
1,546084	-0,673412	44,997	-0,076185	22,310000	51,390000
1,549057	-0,399187	45,148	-0,076069	22,310000	51,390000
1,552078	-0,407287	45,298	-0,076072	22,310000	51,390000
1,555163	-0,359847	45,448	-0,076052	22,310000	51,390000
1,558115	-0,391088	45,599	-0,076065	22,310000	51,390000
1,561027	-0,249926	45,749	-0,076006	22,310000	51,390000
1,564097	-0,491752	45,899	-0,076108	22,310000	51,390000
1,567072	-0,281167	46,049	-0,076019	22,310000	51,390000
1,570137	-0,006942	46,199	-0,075903	22,310000	51,390000
1,573062	-0,195544	46,349	-0,075983	22,310000	51,390000
1,576091	-0,164303	46,499	-0,075970	22,310000	51,390000
1,579075	-0,203643	46,649	-0,075986	22,310000	51,390000
1,582077	-0,164303	46,799	-0,075970	22,310000	51,390000
1,585135	-0,517208	46,949	-0,076119	22,310000	51,390000
1,588139	-0,407287	47,100	-0,076072	22,310000	51,390000
1,591115	-0,555391	47,250	-0,076135	22,310000	51,390000
1,594118	-0,610930	47,400	-0,076158	22,310000	51,390000
1,597107	-0,484810	47,550	-0,076105	22,310000	51,390000
1,600051	-0,438527	47,700	-0,076085	22,310000	51,390000
1,603067	-0,430428	47,850	-0,076082	22,310000	51,390000
1,606126	-0,453569	48,000	-0,076092	22,310000	51,390000
1,609056	-0,484810	48,150	-0,076105	22,310000	51,390000
1,612079	-0,249926	48,300	-0,076006	22,310000	51,390000
1,615063	-0,399187	48,450	-0,076069	22,310000	51,390000
1,618121	-0,602831	48,601	-0,076155	22,310000	51,390000
1,621103	-0,587789	48,751	-0,076148	22,310000	51,390000
1,624078	-0,540349	48,901	-0,076128	22,300000	51,390000
1,627066	-0,367947	49,052	-0,076056	22,300000	51,390000
1,630104	-0,415386	49,202	-0,076076	22,300000	51,390000
1,633124	-0,344805	49,352	-0,076046	22,300000	51,390000
1,636108	-0,399187	49,502	-0,076069	22,300000	51,390000
1,639096	-0,407287	49,653	-0,076072	22,300000	51,390000
1,642119	-0,461669	49,803	-0,076095	22,300000	51,390000
1,645057	-0,399187	49,953	-0,076069	22,300000	51,390000
1,648118	-0,579689	50,104	-0,076145	22,300000	51,390000
1,651075	-0,093722	50,254	-0,075940	22,300000	51,390000
1,654079	-0,376046	50,404	-0,076059	22,300000	51,390000
1,657117	-0,351748	50,554	-0,076049	22,300000	51,390000
1,660083	-0,367947	50,704	-0,076056	22,300000	51,390000
1,663060	-0,415386	50,854	-0,076076	22,300000	51,390000
1,666080	-0,627129	51,004	-0,076165	22,310000	51,365000
1,669076	-0,297366	51,155	-0,076026	22,310000	51,365000
1,672072	0,039340	51,305	-0,075884	22,310000	51,365000
1,675082	-0,509108	51,455	-0,076115	22,310000	51,365000
1,678145	-0,336706	51,606	-0,076042	22,310000	51,365000
1,681123	-0,587789	51,756	-0,076148	22,310000	51,365000
1,684117	-0,477868	51,906	-0,076102	22,310000	51,365000
1,687042	-0,320507	52,056	-0,076036	22,310000	51,365000
1,690062	-0,320507	52,206	-0,076036	22,310000	51,365000
1,693045	-0,359847	52,356	-0,076052	22,310000	51,365000
1,696147	-0,445470	52,506	-0,076088	22,310000	51,365000
1,699086	-0,501009	52,656	-0,076112	22,310000	51,365000
1,702106	-0,524150	52,806	-0,076122	22,310000	51,365000
1,705065	-0,548449	52,957	-0,076132	22,310000	51,375000
1,708104	-0,391088	53,108	-0,076065	22,310000	51,375000
1,711128	-0,602831	53,259	-0,076155	22,310000	51,375000
1,714136	-0,359847	53,410	-0,076052	22,310000	51,375000
1,717087	-0,555391	53,561	-0,076135	22,310000	51,375000
1,720059	-0,351748	53,711	-0,076049	22,310000	51,375000
1,723067	-0,548449	53,862	-0,076132	22,310000	51,375000
1,726075	-0,501009	54,012	-0,076112	22,310000	51,375000
1,729115	-0,673412	54,162	-0,076185	22,310000	51,375000
1,732088	-0,453569	54,313	-0,076092	22,310000	51,375000
1,735009	-0,484810	54,463	-0,076105	22,310000	51,375000
1,738069	-0,634071	54,613	-0,076168	22,310000	51,375000
1,741016	-0,367947	54,764	-0,076056	22,310000	51,375000
1,744135	-0,509108	54,914	-0,076115	22,310000	51,375000
1,747110	-0,376046	55,064	-0,076059	22,310000	51,375000
1,750067	-0,266125	55,214	-0,076013	22,310000	51,375000
1,753086	-0,563490	55,364	-0,076138	22,310000	51,375000
1,756062	-0,610930	55,514	-0,076158	22,310000	51,375000
1,759093	-0,492910	55,664	-0,076108	22,310000	51,375000
1,762066	-0,665312	55,814	-0,076181	22,310000	51,375000
1,765053	-0,548449	55,964	-0,076132	22,310000	51,375000
1,768110	-0,587789	56,114	-0,076148	22,310000	51,375000
1,771071	-0,579689	56,264	-0,076145	22,310000	51,375000
1,774106	-0,548449	56,414	-0,076132	22,310000	51,375000
1,777108	-0,689610	56,564	-0,076191	22,310000	51,375000
1,780144	-0,289266	56,714	-0,076022	22,310000	51,375000
1,783060	-0,312407	56,865	-0,076032	22,310000	51,375000
1,786049	-0,320507	57,016	-0,076036	22,300000	51,390000
1,789068	-0,587789	57,166	-0,076148	22,300000	51,390000
1,792070	-0,532250	57,316	-0,076125	22,300000	51,390000
1,795085	-0,532250	57,466	-0,076125	22,300000	51,390000
1,798105	-0,305465	57,616	-0,076029	22,300000	51,390000
1,801089	-0,351748	57,766	-0,076049	22,300000	51,390000
1,804082	-0,908296	57,916	-0,076284	22,300000	51,390000
1,807023	-0,704652	58,066	-0,076198	22,300000	51,390000
1,810052	-0,634071	58,216	-0,076168	22,300000	51,390000
1,813108	-0,469768	58,366	-0,076099	22,300000	51,390000
1,816060	-0,430428	58,516	-0,076082	22,300000	51,390000
1,819086	-0,587789	58,666	-0,076148	22,300000	51,390000
1,822129	-0,650270	58,817	-0,076175	22,300000	51,390000
1,825066	-0,727794	58,967	-0,076208	22,310000	51,390000
1,828116	-0,627129	59,117	-0,076165	22,310000	51,390000
1,831136	-0,743993	59,267	-0,076214	22,310000	51,390000
1,834038	-0,509108	59,417	-0,076115	22,310000	51,390000
1,837117	-0,673412	59,568	-0,076185	22,310000	51,390000
1,840053	-0,563490	59,718	-0,076138	22,310000	51,390000
1,843078	-0,579689	59,868	-0,076145	22,310000	51,390000
1,846100	-0,469768	60,018	-0,076099	22,310000	51,390000
1,849065	-0,775233	60,168	-0,076228	22,310000	51,390000
1,852082	-0,704652	60,318	-0,076198	22,310000	51,390000
1,855100	-0,814573	60,468	-0,076244	22,310000	51,390000
1,858069	-0,627129	60,618	-0,076165	22,310000	51,390000
1,861051	-0,947636	60,768	-0,076300	22,310000	51,390000
1,864031	-0,532250	60,919	-0,076125	22,310000	51,405000
1,867075	-0,484810	61,069	-0,076105	22,310000	51,405000
1,870087	-0,602831	61,221	-0,076155	22,310000	51,405000
1,873041	-0,783333	61,371	-0,076231	22,310000	51,405000
1,876078	-2,256276	61,521	-0,076853	22,310000	51,405000
1,879006	-149,140995	61,671	-0,138838	22,310000	51,405000
1,882097	-156,570507	61,821	-0,141973	22,310000	51,405000
1,885137	-156,970851	61,972	-0,142142	22,310000	51,405000
1,888112	-159,784832	62,123	-0,143330	22,310000	51,405000
1,891018	-158,107089	62,273	-0,142622	22,310000	51,405000
1,894086	-159,305808	62,424	-0,143127	22,310000	51,405000
1,897097	-157,041432	62,574	-0,142172	22,310000	51,405000
1,900103	-157,307557	62,724	-0,142284	22,310000	51,405000
1,902995	-156,155121	62,874	-0,141798	22,310000	51,405000
1,906054	-152,604090	63,024	-0,140299	22,310000	51,405000
1,909049	-152,792691	63,175	-0,140379	22,310000	51,405000
1,912078	-149,908129	63,325	-0,139162	22,310000	51,405000
1,915078	-150,426494	63,476	-0,139380	22,310000	51,405000
1,918082	-147,172828	63,626	-0,138007	22,310000	51,405000
1,921076	-147,886737	63,776	-0,138309	22,310000	51,405000
1,924024	-145,989151	63,926	-0,137508	22,310000	51,405000
1,927052	-143,559316	64,076	-0,136482	22,310000	51,405000
1,930034	-143,308233	64,226	-0,136376	22,310000	51,405000
1,933080	-141,145679	64,376	-0,135464	22,310000	51,405000
1,936042	-137,971851	64,526	-0,134125	22,310000	51,405000
1,939053	-138,323599	64,676	-0,134273	22,310000	51,405000
1,942019	-134,734384	64,826	-0,132758	22,310000	51,405000
1,944979	-135,133572	64,977	-0,132927	22,300000	51,390000
1,948015	-131,363855	65,127	-0,131336	22,300000	51,390000
1,951081	-132,265208	65,277	-0,131716	22,300000	51,390000
1,954075	-130,266958	65,427	-0,130873	22,300000	51,390000
1,957093	-128,346231	65,577	-0,130062	22,300000	51,390000
1,960100	-124,827597	65,727	-0,128578	22,300000	51,390000
1,963089	-124,952560	65,877	-0,128630	22,300000	51,390000
1,966046	-121,943035	66,028	-0,127360	22,300000	51,390000
1,969077	-121,527649	66,178	-0,127185	22,300000	51,390000
1,972036	-117,686195	66,328	-0,125564	22,300000	51,390000
1,975049	-117,874796	66,478	-0,125644	22,300000	51,390000
1,978084	-113,970860	66,628	-0,123996	22,300000	51,390000
1,981000	-114,597989	66,779	-0,124261	22,300000	51,390000
1,984031	-112,967686	66,929	-0,123573	22,310000	51,405000
1,987037	-110,946294	67,079	-0,122720	22,310000	51,405000
1,990054	-109,425911	67,229	-0,122078	22,310000	51,405000
1,993033	-107,426503	67,379	-0,121234	22,310000	51,405000
1,996081	-105,725618	67,529	-0,120517	22,310000	51,405000
1,999024	-104,088372	67,679	-0,119826	22,310000	51,405000
2,002104	-101,893420	67,830	-0,118899	22,310000	51,405000
2,005084	-97,684020	67,980	-0,117123	22,310000	51,405000
2,008046	-95,779491	68,130	-0,116319	22,310000	51,405000
2,011071	-96,493400	68,280	-0,116621	22,310000	51,405000
2,014043	-92,518883	68,430	-0,114943	22,310000	51,405000
2,017044	-92,487643	68,581	-0,114930	22,310000	51,405000
2,020042	-89,117113	68,731	-0,113508	22,310000	51,405000
2,023043	-88,693628	68,881	-0,113329	22,310000	51,405000
2,026049	-85,879647	69,032	-0,112142	22,310000	51,405000
2,029066	-82,705819	69,183	-0,110802	22,310000	51,405000
2,032074	-82,658379	69,333	-0,110782	22,310000	51,405000
2,035015	-78,543857	69,483	-0,109046	22,310000	51,405000
2,038088	-78,896762	69,633	-0,109195	22,310000	51,405000
2,041093	-74,851664	69,783	-0,107488	22,310000	51,405000
2,044053	-75,071507	69,933	-0,107581	22,310000	51,405000
2,047071	-71,215010	70,083	-0,105953	22,310000	51,405000
2,050076	-71,700977	70,234	-0,106158	22,310000	51,405000
2,053032	-67,492734	70,384	-0,104382	22,310000	51,405000
2,056044	-67,923162	70,534	-0,104564	22,310000	51,405000
2,059068	-63,393254	70,685	-0,102652	22,310000	51,405000
2,062023	-63,839881	70,836	-0,102841	22,310000	51,405000
2,065027	-61,786091	70,987	-0,101974	22,310000	51,340000
2,068070	-59,904704	71,138	-0,101180	22,310000	51,340000
2,071043	-56,495992	71,288	-0,099742	22,310000	51,340000
2,074112	-53,509608	71,439	-0,098481	22,310000	51,340000
2,077029	-53,846314	71,589	-0,098624	22,310000	51,340000
2,080058	-52,184769	71,740	-0,097922	22,310000	51,340000
2,083039	-49,393930	71,890	-0,096745	22,310000	51,340000
2,086038	-48,203310	72,041	-0,096242	22,310000	51,340000
2,089061	-45,812815	72,191	-0,095233	22,310000	51,340000
2,092056	-41,979460	72,342	-0,093616	22,310000	51,340000
2,095021	-42,112522	72,493	-0,093672	22,310000	51,340000
2,098030	-38,240984	72,644	-0,092038	22,310000	51,340000
2,101060	-38,139162	72,794	-0,091995	22,310000	51,340000
2,104049	-36,610680	72,945	-0,091350	22,300000	51,405000
2,107001	-34,745492	73,095	-0,090563	22,300000	51,405000
2,110082	-30,779075	73,245	-0,088889	22,300000	51,405000
2,113010	-30,386830	73,395	-0,088724	22,300000	51,405000
2,116050	-28,506600	73,545	-0,087930	22,300000	51,405000
2,119111	-26,452810	73,696	-0,087063	22,300000	51,405000
2,122066	-24,382822	73,846	-0,086190	22,300000	51,405000
2,125018	-22,494492	73,996	-0,085393	22,300000	51,405000
2,128068	-18,176327	74,147	-0,083571	22,300000	51,405000
2,131094	-15,933936	74,297	-0,082625	22,300000	51,405000
2,134110	-16,051957	74,447	-0,082674	22,300000	51,405000
2,137017	-14,326774	74,597	-0,081946	22,300000	51,405000
2,140076	-11,505850	74,748	-0,080756	22,300000	51,405000
2,143043	-10,675078	74,898	-0,080405	22,300000	51,405000
2,146041	-7,468852	75,048	-0,079052	22,300000	51,405000
2,149074	-6,693619	75,198	-0,078725	22,300000	51,405000
2,152013	-4,521808	75,349	-0,077809	22,300000	51,405000
2,155102	-2,594139	75,499	-0,076995	22,300000	51,405000
2,158015	1,403519	75,650	-0,075308	22,300000	51,405000
2,161088	3,535989	75,801	-0,074408	22,300000	51,405000
2,164049	3,332346	75,952	-0,074494	22,300000	51,405000
2,166992	6,819739	76,102	-0,073022	22,300000	51,405000
2,170038	9,978525	76,252	-0,071689	22,300000	51,405000
2,173060	10,981700	76,403	-0,071266	22,300000	51,405000
2,176055	11,091621	76,553	-0,071220	22,300000	51,405000
2,179118	13,176651	76,704	-0,070340	22,300000	51,405000
2,182062	15,245483	76,855	-0,069467	22,300000	51,405000
2,185018	18,732875	77,005	-0,067995	22,310000	51,405000
2,188072	21,320072	77,155	-0,066903	22,310000	51,405000
2,191083	22,589372	77,306	-0,066368	22,310000	51,405000
2,194060	23,380804	77,457	-0,066034	22,310000	51,405000
2,197060	25,756257	77,607	-0,065031	22,310000	51,405000
2,200029	29,174226	77,757	-0,063589	22,310000	51,405000
2,203077	31,430502	77,907	-0,062637	22,310000	51,405000
2,206044	33,633553	78,057	-0,061707	22,310000	51,405000
2,209029	33,837196	78,207	-0,061621	22,310000	51,405000
2,212035	37,490049	78,357	-0,060080	22,310000	51,405000
2,215038	37,591871	78,507	-0,060037	22,310000	51,405000
2,218046	41,322247	78,658	-0,058462	22,310000	51,405000
2,221088	42,497825	78,809	-0,057966	22,310000	51,405000
2,224074	45,562889	78,959	-0,056673	22,310000	51,405000
2,227038	45,022540	79,110	-0,056901	22,310000	51,405000
2,230070	48,564314	79,261	-0,055406	22,310000	51,405000
2,233016	48,666136	79,412	-0,055363	22,310000	51,405000
2,236022	53,000500	79,562	-0,053534	22,310000	51,405000
2,239081	55,234792	79,712	-0,052591	22,310000	51,405000
2,242045	54,999907	79,863	-0,052690	22,310000	51,405000
2,245045	59,278732	80,013	-0,050885	22,310000	51,405000
2,248065	61,222601	80,163	-0,050064	22,310000	51,405000
2,251042	63,496233	80,314	-0,049105	22,310000	51,405000
2,254035	63,456892	80,464	-0,049122	22,310000	51,405000
2,256979	67,101646	80,615	-0,047583	22,310000	51,405000
2,260031	67,156028	80,765	-0,047561	22,310000	51,405000
2,263073	71,357329	80,915	-0,045788	22,300000	51,390000
2,266025	73,269957	81,066	-0,044980	22,300000	51,390000
2,269053	73,105654	81,216	-0,045050	22,300000	51,390000
2,272090	76,601146	81,366	-0,043575	22,300000	51,390000
2,275088	79,250824	81,517	-0,042457	22,300000	51,390000
2,278074	79,187185	81,667	-0,042483	22,300000	51,390000
2,281036	83,396586	81,817	-0,040707	22,300000	51,390000
2,284107	83,059880	81,967	-0,040849	22,300000	51,390000
2,287042	87,331763	82,118	-0,039046	22,300000	51,390000
2,290050	86,985801	82,269	-0,039192	22,300000	51,390000
2,293036	90,168885	82,419	-0,037849	22,300000	51,390000
2,296045	90,842297	82,570	-0,037565	22,300000	51,390000
2,299071	94,777473	82,720	-0,035904	22,300000	51,390000
2,302062	97,512774	82,870	-0,034750	22,300000	51,390000
2,305058	97,144827	83,020	-0,034905	22,300000	51,390000
2,308058	98,986874	83,170	-0,034128	22,300000	51,390000
2,310996	102,239383	83,321	-0,032755	22,300000	51,390000
2,314041	105,624954	83,471	-0,031327	22,300000	51,390000
2,317103	106,957892	83,622	-0,030764	22,300000	51,390000
2,320039	107,302697	83,772	-0,030619	22,300000	51,390000
2,323016	109,113503	83,922	-0,029854	22,300000	51,390000
2,326039	113,408527	84,072	-0,028042	22,300000	51,390000
2,329071	113,346046	84,222	-0,028068	22,300000	51,390000
2,332054	117,578588	84,372	-0,026282	22,300000	51,390000
2,335033	118,127036	84,522	-0,026051	22,300000	51,390000
2,337982	121,990475	84,672	-0,024420	22,300000	51,390000
2,341087	122,085354	84,822	-0,024380	22,300000	51,390000
2,344106	123,409036	84,972	-0,023822	22,300000	51,390000
2,347069	127,705217	85,123	-0,022009	22,300000	51,390000
2,349994	127,383553	85,274	-0,022145	22,300000	51,390000
2,352987	129,656028	85,425	-0,021186	22,300000	51,390000
2,356013	132,964075	85,575	-0,019790	22,300000	51,390000
2,359014	135,699376	85,725	-0,018635	22,300000	51,390000
2,362020	136,137904	85,876	-0,018450	22,300000	51,390000
2,365081	139,587113	86,026	-0,016995	22,300000	51,390000
2,368017	139,626453	86,177	-0,016978	22,300000	51,390000
2,370949	144,023299	86,328	-0,015123	22,300000	51,390000
2,374040	145,473101	86,478	-0,014511	22,300000	51,390000
2,377027	145,559880	86,628	-0,014474	22,300000	51,390000
2,380059	147,786073	86,778	-0,013535	22,300000	51,390000
2,383119	149,846805	86,928	-0,012665	22,300000	51,405000
2,386084	151,649511	87,079	-0,011904	22,300000	51,405000
2,389055	156,149335	87,229	-0,010005	22,300000	51,405000
2,392067	156,046357	87,379	-0,010049	22,300000	51,405000
2,395065	159,966491	87,529	-0,008395	22,300000	51,405000
2,398045	160,138894	87,680	-0,008322	22,300000	51,405000
2,401001	161,682418	87,830	-0,007670	22,300000	51,405000
2,404047	164,629462	87,980	-0,006427	22,300000	51,405000
2,407017	168,485958	88,130	-0,004799	22,300000	51,405000
2,410046	170,461067	88,281	-0,003966	22,300000	51,405000
2,413037	171,800948	88,431	-0,003400	22,300000	51,405000
2,416043	171,651687	88,581	-0,003463	22,300000	51,405000
2,419053	176,237133	88,732	-0,001528	22,300000	51,405000
2,422042	176,330856	88,882	-0,001489	22,300000	51,405000
2,425034	180,124870	89,033	0,000112	22,300000	51,405000
2,428061	179,732626	89,183	-0,000053	22,300000	51,405000
2,431005	184,201209	89,334	0,001833	22,300000	51,405000
2,434015	184,208151	89,484	0,001835	22,300000	51,405000
2,436997	188,473091	89,634	0,003635	22,300000	51,405000
2,440037	187,931585	89,784	0,003407	22,300000	51,405000
2,442994	190,322080	89,934	0,004416	22,300000	51,405000
2,446074	194,758266	90,084	0,006288	22,300000	51,405000
2,449050	195,111171	90,235	0,006437	22,300000	51,405000
2,452057	196,616512	90,385	0,007072	22,300000	51,405000
2,455044	198,411119	90,536	0,007829	22,300000	51,405000
2,458050	202,737383	90,686	0,009655	22,300000	51,405000
2,461012	204,704393	90,837	0,010485	22,300000	51,405000
2,464067	207,158527	90,988	0,011521	22,300000	51,390000
2,467033	207,196710	91,138	0,011537	22,300000	51,390000
2,470066	208,702051	91,288	0,012172	22,300000	51,390000
2,473017	210,936343	91,438	0,013115	22,300000	51,390000
2,476064	214,925902	91,589	0,014798	22,300000	51,390000
2,479009	214,988383	91,739	0,014825	22,300000	51,390000
2,482081	219,345888	91,890	0,016664	22,300000	51,390000
2,485121	221,243474	92,040	0,017464	22,300000	51,390000
2,488052	222,560214	92,190	0,018020	22,300000	51,390000
2,491076	223,116762	92,341	0,018255	22,300000	51,390000
2,494030	227,082022	92,491	0,019928	22,300000	51,390000
2,497066	227,113263	92,641	0,019941	22,300000	51,390000
2,500052	231,071581	92,792	0,021612	22,300000	51,390000
2,503061	233,563898	92,943	0,022664	22,310000	51,405000
2,506039	233,415793	93,093	0,022601	22,310000	51,405000
2,509006	235,397845	93,243	0,023437	22,310000	51,405000
2,512050	237,577755	93,393	0,024357	22,310000	51,405000
2,515093	239,341121	93,543	0,025102	22,310000	51,405000
2,518059	242,687352	93,694	0,026514	22,310000	51,405000
2,521061	243,361921	93,844	0,026798	22,310000	51,405000
2,524006	245,666793	93,994	0,027771	22,310000	51,405000
2,527006	249,922477	94,145	0,029567	22,310000	51,405000
2,530004	250,259182	94,296	0,029709	22,310000	51,405000
2,533035	251,733283	94,446	0,030331	22,310000	51,405000
2,536093	253,762774	94,597	0,031187	22,310000	51,405000
2,539048	257,846055	94,747	0,032911	22,310000	51,405000
2,542040	258,105237	94,898	0,033020	22,310000	51,405000
2,545051	262,385219	95,049	0,034826	22,310000	51,405000
2,548044	264,319831	95,200	0,035643	22,310000	51,405000
2,551037	265,237383	95,351	0,036030	22,310000	51,405000
2,554076	268,294348	95,502	0,037320	22,310000	51,405000
2,557055	268,223767	95,652	0,037290	22,310000	51,405000
2,560099	270,246316	95,802	0,038144	22,310000	51,405000
2,563034	272,996658	95,953	0,039304	22,310000	51,405000
2,566057	276,751333	96,104	0,040889	22,310000	51,405000
2,569080	276,383386	96,255	0,040733	22,310000	51,405000
2,572057	280,757090	96,406	0,042579	22,310000	51,405000
2,574997	281,023215	96,556	0,042691	22,310000	51,405000
2,578008	282,614179	96,708	0,043363	22,310000	51,405000
2,581093	284,589288	96,858	0,044196	22,310000	51,405000
2,584021	286,634979	97,008	0,045060	22,290000	51,390000
2,586996	288,829930	97,158	0,045986	22,290000	51,390000
2,590015	293,015033	97,308	0,047752	22,290000	51,390000
2,593040	293,108755	97,458	0,047792	22,290000	51,390000
2,596071	296,856487	97,608	0,049373	22,290000	51,390000
2,599044	299,278223	97,758	0,050395	22,290000	51,390000
2,602032	301,394494	97,908	0,051288	22,290000	51,390000
2,605077	301,292673	98,058	0,051245	22,290000	51,390000
2,608048	303,463326	98,208	0,052161	22,290000	51,390000
2,611031	307,766449	98,359	0,053977	22,290000	51,390000
2,613998	307,201801	98,510	0,053739	22,290000	51,390000
2,617026	309,411795	98,660	0,054671	22,290000	51,390000
2,620093	313,253249	98,810	0,056292	22,290000	51,390000
2,623001	313,417552	98,960	0,056362	22,300000	51,415000
2,626059	316,302114	99,110	0,057579	22,300000	51,415000
2,629027	320,056789	99,260	0,059164	22,300000	51,415000
2,632049	320,135469	99,410	0,059197	22,300000	51,415000
2,635038	322,007600	99,561	0,059987	22,300000	51,415000
2,638059	323,834605	99,712	0,060758	22,300000	51,415000
2,641020	325,832855	99,862	0,061601	22,300000	51,415000
2,644054	329,320248	100,012	0,063073	22,300000	51,415000
2,647016	330,433344	100,162	0,063542	22,300000	51,415000
2,649984	333,036739	100,312	0,064641	22,300000	51,415000
2,653077	336,750916	100,462	0,066208	22,300000	51,415000
2,656006	337,269281	100,612	0,066427	22,300000	51,415000
2,659067	340,905935	100,762	0,067962	22,300000	51,415000
2,662062	340,709234	100,912	0,067879	22,300000	51,375000
2,665083	345,059797	101,062	0,069715	22,300000	51,375000
2,668043	347,317230	101,212	0,070667	22,300000	51,375000
2,671025	348,712650	101,362	0,071256	22,300000	51,375000
2,674051	349,409203	101,513	0,071550	22,300000	51,375000
2,677025	351,134386	101,663	0,072278	22,300000	51,375000
2,680085	353,532981	101,814	0,073291	22,300000	51,375000
2,683070	356,762348	101,965	0,074653	22,300000	51,375000
2,686008	359,543931	102,115	0,075827	22,300000	51,375000
2,689109	360,806289	102,265	0,076360	22,300000	51,375000
2,692025	361,566480	102,415	0,076681	22,300000	51,375000
2,695060	365,531741	102,565	0,078354	22,300000	51,375000
2,698053	368,087696	102,716	0,079433	22,300000	51,375000
2,701057	368,243900	102,866	0,079499	22,300000	51,375000
2,704081	369,772382	103,016	0,080144	22,300000	51,365000
2,707009	373,487717	103,166	0,081711	22,300000	51,365000
2,709952	373,879961	103,317	0,081877	22,300000	51,365000
2,713044	377,429836	103,468	0,083375	22,300000	51,365000
2,716030	377,618437	103,618	0,083455	22,300000	51,365000
2,719050	380,988966	103,768	0,084877	22,300000	51,365000
2,722036	384,641819	103,918	0,086418	22,300000	51,365000
2,725049	385,801198	104,068	0,086908	22,300000	51,365000
2,728016	386,287165	104,219	0,087113	22,300000	51,365000
2,731024	389,273549	104,369	0,088373	22,300000	51,365000
2,734034	392,792182	104,519	0,089858	22,300000	51,365000
2,737058	393,286249	104,670	0,090066	22,300000	51,365000
2,740024	394,721009	104,820	0,090672	22,300000	51,365000
2,743019	396,922902	104,971	0,091601	22,300000	51,405000
2,746034	398,914211	105,121	0,092441	22,300000	51,405000
2,749061	400,991142	105,272	0,093318	22,300000	51,405000
2,752039	403,044931	105,423	0,094185	22,300000	51,405000
2,755033	407,606080	105,573	0,096109	22,300000	51,405000
2,758040	409,644827	105,723	0,096970	22,300000	51,405000
2,761059	409,433085	105,874	0,096880	22,300000	51,405000
2,764098	413,610088	106,024	0,098643	22,300000	51,405000
2,767014	413,445785	106,175	0,098574	22,300000	51,405000
2,770004	417,451542	106,325	0,100264	22,300000	51,405000
2,773054	417,732709	106,476	0,100383	22,300000	51,405000
2,776047	421,071997	106,626	0,101792	22,300000	51,405000
2,778983	422,028890	106,776	0,102196	22,300000	51,405000
2,782033	425,358921	106,926	0,103601	22,300000	51,405000
2,785073	426,371353	107,076	0,104028	22,300000	51,405000
2,788027	428,338363	107,226	0,104858	22,300000	51,405000
2,791030	432,876370	107,376	0,106773	22,300000	51,405000
2,794047	433,644661	107,526	0,107098	22,300000	51,405000
2,797049	434,710317	107,676	0,107547	22,300000	51,405000
2,800001	438,284490	107,826	0,109056	22,300000	51,405000
2,803035	438,841038	107,976	0,109291	22,300000	51,405000
2,806066	441,670061	108,126	0,110484	22,300000	51,405000
2,809009	445,636478	108,276	0,112158	22,300000	51,405000
2,812017	444,930669	108,426	0,111860	22,300000	51,405000
2,815057	447,439185	108,576	0,112919	22,300000	51,405000
2,818046	449,570498	108,726	0,113818	22,300000	51,405000
2,821026	453,897919	108,876	0,115645	22,300000	51,405000
2,824055	454,853654	109,026	0,116048	22,310000	51,415000
2,827071	455,935510	109,176	0,116504	22,310000	51,415000
2,830042	458,560889	109,326	0,117612	22,310000	51,415000
2,833086	459,948210	109,477	0,118198	22,310000	51,415000
2,835989	462,056381	109,628	0,119087	22,310000	51,415000
2,839012	466,391902	109,778	0,120917	22,310000	51,415000
2,841984	466,250741	109,928	0,120857	22,310000	51,415000
2,845017	471,141652	110,078	0,122921	22,310000	51,415000
2,848036	470,836187	110,228	0,122792	22,310000	51,415000
2,851017	473,359745	110,378	0,123857	22,310000	51,415000
2,854030	474,809547	110,529	0,124469	22,310000	51,415000
2,857016	478,924069	110,680	0,126206	22,310000	51,415000
2,860007	481,345805	110,830	0,127228	22,310000	51,415000
2,862974	480,891079	110,980	0,127036	22,310000	51,415000
2,866020	483,345213	111,130	0,128071	22,310000	51,415000
2,869009	486,284157	111,280	0,129312	22,310000	51,415000
2,872034	489,928910	111,430	0,130850	22,310000	51,415000
2,874995	490,422977	111,580	0,131058	22,310000	51,415000
2,877994	491,605497	111,730	0,131557	22,310000	51,415000
2,881048	495,665636	111,880	0,133271	22,310000	51,415000
2,884007	498,001749	112,031	0,134256	22,310000	51,415000
2,887024	500,595888	112,181	0,135351	22,310000	51,415000
2,890057	499,976859	112,331	0,135090	22,310000	51,415000
2,893003	503,017624	112,482	0,136373	22,310000	51,415000
2,896021	506,944702	112,632	0,138030	22,310000	51,415000
2,899050	507,203884	112,782	0,138140	22,310000	51,415000
2,902041	510,832439	112,932	0,139671	22,310000	51,375000
2,904997	512,344722	113,082	0,140309	22,310000	51,375000
2,908045	513,183594	113,232	0,140663	22,310000	51,375000
2,911000	516,907028	113,383	0,142234	22,310000	51,375000
2,914068	517,056289	113,533	0,142297	22,310000	51,375000
2,917029	519,360004	113,684	0,143270	22,310000	51,375000
2,920016	523,631887	113,835	0,145072	22,310000	51,375000
2,923050	523,631887	113,986	0,145072	22,310000	51,375000
2,925981	527,887570	114,136	0,146868	22,310000	51,375000
2,929023	530,098721	114,286	0,147801	22,310000	51,375000
2,932007	532,246233	114,437	0,148708	22,310000	51,375000
2,935023	532,292515	114,587	0,148727	22,310000	51,375000
2,937981	535,623704	114,737	0,150133	22,310000	51,375000
2,941017	536,180252	114,888	0,150368	22,310000	51,375000
2,944059	538,618187	115,038	0,151396	22,310000	51,375000
2,946973	540,522715	115,188	0,152200	22,310000	51,375000
2,950092	544,489133	115,338	0,153874	22,310000	51,375000
2,952992	545,045681	115,488	0,154109	22,310000	51,375000
2,956013	549,473767	115,638	0,155978	22,310000	51,375000
2,959077	550,744224	115,788	0,156514	22,310000	51,375000
2,961994	551,307714	115,938	0,156751	22,310000	51,375000
2,964974	555,885062	116,088	0,158683	22,310000	51,375000
2,967980	556,073663	116,238	0,158763	22,310000	51,375000
2,971070	560,165044	116,388	0,160489	22,310000	51,375000
2,974068	561,066397	116,538	0,160870	22,310000	51,375000
2,977032	561,826588	116,688	0,161190	22,310000	51,375000
2,980042	565,494483	116,838	0,162738	22,310000	51,375000
2,983048	566,459475	116,988	0,163146	22,300000	51,375000
2,986018	569,116095	117,138	0,164267	22,300000	51,375000
2,988992	570,613337	117,288	0,164898	22,300000	51,375000
2,992026	574,038248	117,438	0,166344	22,300000	51,375000
2,995010	574,885219	117,588	0,166701	22,300000	51,375000
2,997997	577,643661	117,738	0,167865	22,300000	51,375000
3,000979	581,656361	117,889	0,169559	22,300000	51,375000
3,003946	581,554539	118,039	0,169516	22,300000	51,375000
3,006986	584,933168	118,190	0,170941	22,300000	51,375000
3,010016	587,965834	118,341	0,172221	22,300000	51,375000
3,013083	587,637228	118,491	0,172083	22,300000	51,375000
3,016005	590,827255	118,641	0,173429	22,300000	51,375000
3,019027	593,468833	118,791	0,174543	22,300000	51,375000
3,022036	594,487050	118,941	0,174973	22,300000	51,375000
3,024995	596,164794	119,091	0,175681	22,300000	51,375000
3,027976	598,359745	119,241	0,176607	22,300000	51,375000
3,030991	600,436676	119,392	0,177484	22,300000	51,375000
3,033952	603,030815	119,542	0,178579	22,300000	51,375000
3,037027	604,887904	119,692	0,179362	22,300000	51,375000
3,040011	607,348980	119,842	0,180401	22,300000	51,375000
3,043010	611,637061	119,992	0,182210	22,300000	51,375000
3,045977	611,762024	120,142	0,182263	22,300000	51,375000
3,049018	616,048948	120,292	0,184072	22,300000	51,375000
3,052000	618,025215	120,442	0,184906	22,300000	51,375000
3,055083	618,534323	120,592	0,185121	22,300000	51,375000
3,057940	620,243308	120,742	0,185842	22,300000	51,375000
3,060984	624,632053	120,892	0,187694	22,300000	51,375000
3,063990	624,318489	121,043	0,187562	22,300000	51,405000
3,066969	626,889486	121,194	0,188647	22,300000	51,405000
3,069980	628,629712	121,344	0,189381	22,300000	51,405000
3,073016	630,808464	121,494	0,190301	22,300000	51,405000
3,076050	635,448293	121,645	0,192259	22,300000	51,405000
3,079020	634,837363	121,796	0,192001	22,300000	51,405000
3,081991	637,196618	121,946	0,192997	22,300000	51,405000
3,085043	641,655945	122,097	0,194878	22,300000	51,405000
3,088026	644,085780	122,248	0,195904	22,300000	51,405000
3,091011	646,100230	122,398	0,196754	22,300000	51,405000
3,094012	645,873445	122,548	0,196658	22,300000	51,405000
3,097004	648,083438	122,698	0,197591	22,300000	51,405000
3,099959	652,488383	122,848	0,199450	22,300000	51,405000
3,103018	653,335354	122,998	0,199807	22,300000	51,390000
3,105984	654,839538	123,148	0,200442	22,300000	51,390000
3,109006	657,339955	123,298	0,201497	22,300000	51,390000
3,112010	661,140912	123,448	0,203101	22,300000	51,390000
3,114987	661,682418	123,598	0,203330	22,300000	51,390000
3,117983	665,499574	123,749	0,204940	22,300000	51,390000
3,120958	665,726359	123,899	0,205036	22,300000	51,390000
3,123993	667,576505	124,049	0,205817	22,300000	51,390000
3,127007	671,925911	124,199	0,207652	22,300000	51,390000
3,129939	674,317563	124,349	0,208662	22,300000	51,390000
3,132984	674,442526	124,499	0,208714	22,300000	51,390000
3,136003	678,589446	124,649	0,210464	22,300000	51,390000
3,139013	678,557048	124,800	0,210451	22,300000	51,390000
3,141925	680,642078	124,950	0,211331	22,300000	51,405000
3,145019	682,687768	125,100	0,212194	22,300000	51,405000
3,147988	687,117012	125,250	0,214063	22,300000	51,405000
3,150988	686,834688	125,400	0,213944	22,300000	51,405000
3,154020	691,395836	125,551	0,215869	22,300000	51,405000
3,156988	691,466417	125,701	0,215898	22,300000	51,405000
3,159978	693,457725	125,852	0,216739	22,300000	51,405000
3,163003	695,636478	126,002	0,217658	22,300000	51,405000
3,165992	699,555456	126,152	0,219312	22,300000	51,405000
3,169013	700,135145	126,302	0,219557	22,300000	51,405000
3,172015	703,740558	126,452	0,221078	22,300000	51,405000
3,175004	704,681252	126,602	0,221475	22,300000	51,405000
3,178025	706,554539	126,752	0,222266	22,300000	51,405000
3,180946	708,655769	126,903	0,223152	22,300000	51,405000
3,184006	711,571571	127,054	0,224383	22,300000	51,375000
3,186989	713,091954	127,204	0,225024	22,300000	51,375000
3,190036	717,503841	127,354	0,226886	22,300000	51,375000
3,193039	719,864253	127,504	0,227882	22,300000	51,375000
3,196028	720,898669	127,654	0,228319	22,300000	51,375000
3,198995	723,742734	127,804	0,229519	22,300000	51,375000
3,202042	724,543422	127,955	0,229857	22,300000	51,375000
3,205004	726,078847	128,106	0,230505	22,300000	51,375000
3,207999	728,423060	128,257	0,231494	22,300000	51,375000
3,210963	731,032240	128,408	0,232595	22,300000	51,375000
3,213987	733,000407	128,558	0,233426	22,300000	51,375000
3,216972	734,614512	128,708	0,234107	22,300000	51,375000
3,219997	739,388561	128,858	0,236122	22,300000	51,375000
3,222968	740,045773	129,009	0,236399	22,300000	51,375000
3,225995	743,581763	129,159	0,237891	22,300000	51,375000
3,229043	744,796681	129,309	0,238404	22,300000	51,375000
3,231978	745,698034	129,459	0,238784	22,300000	51,375000
3,235012	749,640153	129,609	0,240448	22,300000	51,375000
3,237939	752,641578	129,759	0,241714	22,300000	51,375000
3,240982	754,491725	129,909	0,242495	22,300000	51,375000
3,243977	756,842880	130,059	0,243487	22,300000	51,375000
3,247029	756,435593	130,210	0,243315	22,300000	51,375000
3,249906	761,303364	130,360	0,245370	22,300000	51,375000
3,253010	762,462743	130,510	0,245859	22,300000	51,375000
3,255960	762,831846	130,660	0,246015	22,300000	51,375000
3,258987	767,824580	130,810	0,248122	22,300000	51,375000
3,262006	767,432335	130,961	0,247956	22,310000	51,365000
3,264959	769,729108	131,111	0,248925	22,310000	51,365000
3,267958	774,196534	131,261	0,250811	22,310000	51,365000
3,271006	775,019207	131,411	0,251158	22,310000	51,365000
3,274038	778,734542	131,561	0,252726	22,310000	51,365000
3,277016	778,711400	131,711	0,252716	22,310000	51,365000
3,279992	780,663368	131,861	0,253540	22,310000	51,365000
3,282989	783,436852	132,011	0,254710	22,310000	51,365000
3,285982	784,652927	132,161	0,255223	22,310000	51,365000
3,288960	787,168385	132,311	0,256285	22,310000	51,365000
3,291997	791,722591	132,462	0,258207	22,310000	51,365000
3,294965	791,220425	132,612	0,257995	22,310000	51,365000
3,298030	794,833938	132,762	0,259520	22,310000	51,365000
3,300958	797,797180	132,912	0,260770	22,310000	51,365000
3,303938	800,578764	133,063	0,261944	22,310000	51,365000
3,306950	800,430659	133,213	0,261881	22,310000	51,365000
3,309941	802,302790	133,363	0,262671	22,310000	51,365000
3,312958	804,505841	133,514	0,263601	22,310000	51,365000
3,315936	806,457809	133,664	0,264425	22,310000	51,365000
3,318918	808,942026	133,814	0,265473	22,310000	51,365000
3,321914	811,027057	133,965	0,266353	22,310000	51,365000
3,324955	815,588205	134,115	0,268278	22,310000	51,365000
3,327999	817,564472	134,266	0,269112	22,310000	51,365000
3,330944	817,250907	134,417	0,268979	22,310000	51,365000
3,333984	822,156861	134,568	0,271050	22,310000	51,365000
3,336979	824,563555	134,718	0,272065	22,310000	51,365000
3,340032	824,131970	134,868	0,271883	22,310000	51,365000
3,342952	828,827338	135,018	0,273865	22,310000	51,405000
3,345979	829,884895	135,168	0,274311	22,310000	51,405000
3,348950	830,881128	135,318	0,274731	22,310000	51,405000
3,351930	834,243557	135,468	0,276150	22,310000	51,405000
3,355011	835,128712	135,618	0,276524	22,310000	51,405000
3,357979	839,682918	135,768	0,278446	22,310000	51,405000
3,360963	839,110171	135,918	0,278204	22,310000	51,405000
3,363964	842,739883	136,068	0,279736	22,310000	51,405000
3,367008	845,898669	136,219	0,281069	22,310000	51,405000
3,369964	845,898669	136,369	0,281069	22,310000	51,405000
3,372964	847,982542	136,519	0,281948	22,310000	51,405000
3,376003	851,251250	136,669	0,283328	22,310000	51,405000
3,379003	852,325006	136,819	0,283781	22,310000	51,405000
3,381988	857,043515	136,969	0,285772	22,300000	51,405000
3,384970	856,581846	137,119	0,285577	22,300000	51,405000
3,387928	859,182927	137,270	0,286675	22,300000	51,405000
3,391011	863,612170	137,420	0,288544	22,300000	51,405000
3,393892	865,917043	137,570	0,289517	22,300000	51,405000
3,397010	867,836613	137,720	0,290327	22,300000	51,405000
3,399920	869,944785	137,870	0,291216	22,300000	51,405000
3,402994	872,218417	138,021	0,292176	22,300000	51,405000
3,405939	874,515190	138,171	0,293145	22,300000	51,405000
3,408962	876,669644	138,322	0,294054	22,300000	51,405000
3,411950	876,426661	138,472	0,293952	22,300000	51,405000
3,414907	878,613513	138,622	0,294875	22,300000	51,405000
3,417954	883,183918	138,773	0,296803	22,300000	51,405000
3,421007	883,410702	138,923	0,296899	22,300000	51,415000
3,423999	884,868604	139,073	0,297514	22,300000	51,415000
3,426964	887,298439	139,223	0,298540	22,300000	51,415000
3,429935	889,830097	139,373	0,299608	22,300000	51,415000
3,432998	891,758923	139,524	0,300422	22,300000	51,415000
3,435957	896,413794	139,675	0,302386	22,300000	51,415000
3,438897	898,506924	139,826	0,303270	22,300000	51,415000
3,441926	898,295181	139,977	0,303180	22,300000	51,415000
3,444950	900,575755	140,127	0,304143	22,300000	51,415000
3,447967	905,153103	140,277	0,306074	22,300000	51,415000
3,450905	905,113763	140,428	0,306058	22,300000	51,415000
3,453901	909,346305	140,578	0,307844	22,300000	51,415000
3,456934	909,001500	140,729	0,307698	22,300000	51,415000
3,459944	913,861171	140,880	0,309749	22,300000	51,415000
3,462978	913,391403	141,030	0,309551	22,300000	51,390000
3,466003	915,491475	141,180	0,310437	22,300000	51,390000
3,468893	920,116262	141,331	0,312389	22,300000	51,390000
3,471916	921,863429	141,481	0,313126	22,300000	51,390000
3,474962	924,168302	141,631	0,314099	22,300000	51,390000
3,477913	927,107246	141,781	0,315339	22,300000	51,390000
3,480952	929,067313	141,931	0,316166	22,300000	51,390000
3,483980	929,177235	142,082	0,316212	22,300000	51,390000
3,486925	931,237967	142,233	0,317082	22,300000	51,390000
3,489932	933,306798	142,384	0,317955	22,300000	51,390000
3,492919	937,908444	142,534	0,319897	22,300000	51,390000
3,495996	938,872279	142,684	0,320304	22,300000	51,390000
3,499034	942,250907	142,834	0,321729	22,300000	51,390000
3,501921	944,421560	142,984	0,322646	22,310000	51,405000
3,504958	943,919394	143,134	0,322434	22,310000	51,405000
3,507926	947,110578	143,284	0,323780	22,310000	51,405000
3,510924	948,238716	143,434	0,324256	22,310000	51,405000
3,513952	950,652353	143,585	0,325275	22,310000	51,405000
3,516918	955,042256	143,736	0,327127	22,310000	51,405000
3,519901	955,119779	143,886	0,327160	22,310000	51,405000
3,522897	959,368520	144,036	0,328953	22,310000	51,405000
3,525967	959,744566	144,186	0,329112	22,310000	51,405000
3,528924	964,055789	144,336	0,330931	22,310000	51,405000
3,531930	963,781565	144,486	0,330815	22,310000	51,405000
3,534976	966,077181	144,636	0,331784	22,310000	51,405000
3,537957	968,367012	144,786	0,332750	22,310000	51,405000
3,540875	970,325922	144,936	0,333577	22,310000	51,405000
3,543910	974,919468	145,087	0,335516	22,310000	51,405000
3,546941	976,863337	145,237	0,336336	22,310000	51,405000
3,549897	979,237633	145,387	0,337338	22,310000	51,405000
3,552919	978,917126	145,537	0,337203	22,310000	51,405000
3,555886	981,252083	145,688	0,338188	22,310000	51,405000
3,558989	983,783740	145,838	0,339256	22,310000	51,405000
3,561962	988,329847	145,988	0,341175	22,310000	51,405000
3,564951	989,810889	146,138	0,341800	22,310000	51,405000
3,567916	990,203134	146,288	0,341965	22,310000	51,405000
3,570911	992,342547	146,438	0,342868	22,310000	51,405000
3,573965	997,069155	146,588	0,344863	22,310000	51,405000
3,576881	997,264699	146,738	0,344945	22,310000	51,405000
3,579945	1001,223017	146,889	0,346616	22,310000	51,405000
3,582896	1001,223017	147,039	0,346616	22,310000	51,375000
3,585909	1005,573580	147,190	0,348452	22,310000	51,375000
3,588949	1005,870946	147,340	0,348577	22,310000	51,375000
3,591919	1010,142828	147,490	0,350380	22,310000	51,375000
3,594899	1010,919218	147,640	0,350708	22,310000	51,375000
3,597903	1014,359171	147,790	0,352159	22,310000	51,375000
3,600952	1016,374778	147,941	0,353010	22,310000	51,375000
3,603899	1016,092454	148,092	0,352891	22,310000	51,375000
3,606917	1020,707985	148,242	0,354838	22,310000	51,375000
3,609964	1023,020957	148,392	0,355814	22,310000	51,375000
3,612896	1022,927235	148,542	0,355775	22,310000	51,375000
3,615919	1025,340871	148,693	0,356793	22,310000	51,375000
3,618910	1026,948034	148,843	0,357472	22,310000	51,375000
3,621907	1031,548523	148,993	0,359413	22,310000	51,375000
3,624893	1031,822747	149,144	0,359529	22,310000	51,375000
3,627909	1033,930919	149,294	0,360418	22,310000	51,375000
3,630943	1036,007850	149,445	0,361295	22,310000	51,375000
3,633891	1038,343963	149,595	0,362281	22,310000	51,375000
3,636910	1040,248491	149,746	0,363084	22,310000	51,375000
3,639903	1044,206809	149,896	0,364755	22,310000	51,375000
3,642946	1044,912618	150,046	0,365053	22,310000	51,375000
3,645910	1048,854737	150,196	0,366716	22,310000	51,375000
3,648883	1049,042182	150,346	0,366795	22,310000	51,375000
3,651951	1051,292673	150,497	0,367745	22,310000	51,375000
3,651827	1053,455226	150,647	0,368658	22,310000	51,375000
3,651894	1052,906778	150,798	0,368426	22,310000	51,375000
3,651932	1053,212243	150,948	0,368555	22,310000	51,365000
3,651903	1052,499491	151,098	0,368254	22,310000	51,365000
3,651954	1052,655695	151,248	0,368320	22,310000	51,365000
3,651932	1052,514533	151,398	0,368261	22,310000	51,365000
3,651914	1052,248408	151,548	0,368148	22,310000	51,365000
3,651919	1052,099147	151,698	0,368085	22,310000	51,365000
3,651928	1051,895503	151,848	0,368000	22,310000	51,365000
3,651927	1051,982283	151,998	0,368036	22,310000	51,365000
3,651873	1051,652520	152,148	0,367897	22,310000	51,365000
3,651957	1051,613179	152,298	0,367880	22,310000	51,365000
3,651926	1051,629378	152,448	0,367887	22,310000	51,365000
3,651862	1051,261432	152,598	0,367732	22,310000	51,365000
3,651871	1051,488216	152,748	0,367828	22,310000	51,365000
3,651949	1051,002249	152,898	0,367623	22,310000	51,365000
3,651925	1050,954810	153,049	0,367603	22,320000	51,390000
3,651943	1051,143411	153,200	0,367682	22,320000	51,390000
3,651878	1050,931668	153,350	0,367593	22,320000	51,390000
3,651856	1050,931668	153,500	0,367593	22,320000	51,390000
3,651926	1050,649345	153,651	0,367474	22,320000	51,390000
3,651919	1050,563722	153,802	0,367438	22,320000	51,390000
3,651923	1050,202718	153,952	0,367285	22,320000	51,390000
3,651888	1050,476942	154,102	0,367401	22,320000	51,390000
3,651918	1050,445701	154,252	0,367388	22,320000	51,390000
3,651888	1050,132137	154,402	0,367255	22,320000	51,390000
3,651899	1050,054613	154,554	0,367223	22,320000	51,390000
3,651924	1050,242058	154,705	0,367302	22,320000	51,390000
3,651854	1049,990975	154,856	0,367196	22,320000	51,390000
3,651915	1050,038415	155,007	0,367216	22,320000	51,390000
3,651921	1049,826672	155,157	0,367126	22,320000	51,390000
3,651907	1049,803530	155,308	0,367117	22,320000	51,390000
3,651882	1049,842871	155,459	0,367133	22,320000	51,390000
3,651860	1049,905352	155,609	0,367160	22,320000	51,390000
3,651883	1049,857912	155,760	0,367140	22,320000	51,390000
3,651859	1049,521207	155,910	0,366998	22,320000	51,390000
3,651938	1049,716751	156,060	0,367080	22,320000	51,390000
3,651904	1049,262024	156,210	0,366888	22,320000	51,390000
3,651936	1049,270124	156,360	0,366892	22,320000	51,390000
3,651923	1049,348804	156,510	0,366925	22,320000	51,390000
3,651941	1049,278223	156,660	0,366895	22,320000	51,390000
3,651925	1049,137061	156,811	0,366835	22,320000	51,390000
3,651935	1048,995899	156,962	0,366776	22,310000	51,375000
3,651893	1049,105820	157,112	0,366822	22,310000	51,375000
3,651849	1049,035240	157,262	0,366792	22,310000	51,375000
3,651894	1048,917219	157,412	0,366743	22,310000	51,375000
3,651858	1048,948460	157,563	0,366756	22,310000	51,375000
3,651944	1048,909120	157,713	0,366739	22,310000	51,375000
3,651897	1048,846638	157,864	0,366713	22,310000	51,375000
3,651893	1048,831596	158,014	0,366707	22,310000	51,375000
3,651957	1048,972758	158,164	0,366766	22,310000	51,375000
3,651953	1048,838539	158,314	0,366709	22,310000	51,375000
3,651886	1048,595555	158,465	0,366607	22,310000	51,375000
3,651909	1048,659194	158,615	0,366634	22,310000	51,375000
3,651928	1048,431252	158,765	0,366538	22,310000	51,375000
3,651900	1048,423152	158,916	0,366534	22,310000	51,375000
3,651941	1048,423152	159,066	0,366534	22,310000	51,375000
3,651934	1048,173226	159,216	0,366429	22,310000	51,375000
3,651920	1048,329430	159,366	0,366495	22,310000	51,375000
3,651862	1048,431252	159,516	0,366538	22,310000	51,375000
3,651887	1048,204467	159,666	0,366442	22,310000	51,375000
3,651939	1048,266949	159,816	0,366468	22,310000	51,375000
3,651901	1048,227608	159,967	0,366452	22,310000	51,375000
3,651923	1048,047106	160,117	0,366375	22,310000	51,375000
3,651858	1048,157028	160,267	0,366422	22,310000	51,375000
3,651939	1047,976525	160,417	0,366346	22,310000	51,375000
3,651937	1047,796023	160,567	0,366270	22,310000	51,375000
3,648929	1047,679160	160,717	0,366220	22,310000	51,375000
3,645863	1045,328005	160,867	0,365228	22,310000	51,375000
3,642918	1042,765107	161,018	0,364146	22,310000	51,375000
3,639854	1040,342213	161,168	0,363124	22,310000	51,375000
3,636922	1037,874195	161,318	0,362083	22,310000	51,375000
3,633930	1034,323164	161,469	0,360584	22,310000	51,375000
3,630884	1030,545348	161,621	0,358990	22,310000	51,375000
3,627909	1029,691434	161,771	0,358629	22,310000	51,375000
3,624892	1028,601479	161,921	0,358169	22,310000	51,375000
3,621889	1024,501999	162,071	0,356439	22,310000	51,375000
3,618899	1023,773049	162,221	0,356132	22,310000	51,375000
3,615916	1019,799689	162,371	0,354455	22,310000	51,375000
3,612849	1018,975859	162,522	0,354107	22,310000	51,375000
3,609897	1016,264857	162,673	0,352963	22,310000	51,375000
3,606964	1011,498908	162,824	0,350952	22,310000	51,375000
3,603883	1011,718750	162,974	0,351045	22,310000	51,375000
3,600966	1007,446868	163,124	0,349242	22,310000	51,375000
3,597874	1006,317573	163,274	0,348766	22,310000	51,375000
3,594896	1004,734708	163,424	0,348098	22,310000	51,375000
3,591829	999,922477	163,574	0,346067	22,310000	51,375000
3,588964	997,430160	163,724	0,345015	22,310000	51,375000
3,585926	997,374620	163,874	0,344992	22,310000	51,375000
3,582885	992,875953	164,024	0,343093	22,310000	51,375000
3,579904	992,554289	164,174	0,342958	22,310000	51,375000
3,576905	988,196784	164,324	0,341119	22,310000	51,375000
3,573918	987,765199	164,474	0,340937	22,310000	51,375000
3,570928	984,983616	164,625	0,339763	22,310000	51,375000
3,567882	983,368354	164,776	0,339081	22,310000	51,375000
3,564989	979,010849	164,926	0,337242	22,310000	51,375000
3,561898	978,681085	165,076	0,337103	22,310000	51,375000
3,558923	974,033157	165,226	0,335142	22,310000	51,375000
3,555914	974,362920	165,376	0,335281	22,310000	51,375000
3,552937	971,823164	165,526	0,334209	22,310000	51,375000
3,549920	969,268365	165,676	0,333131	22,310000	51,375000
3,546959	966,955393	165,827	0,332155	22,310000	51,375000
3,543898	962,143161	165,978	0,330124	22,310000	51,375000
3,540986	961,156185	166,128	0,329708	22,310000	51,375000
3,537923	960,121769	166,278	0,329271	22,310000	51,375000
3,534885	956,249074	166,428	0,327637	22,310000	51,375000
3,531918	955,183418	166,578	0,327187	22,310000	51,375000
3,528952	951,420644	166,728	0,325599	22,310000	51,375000
3,525967	950,715992	166,879	0,325302	22,310000	51,375000
3,522975	948,120696	167,029	0,324207	22,300000	51,390000
3,519984	946,201126	167,179	0,323396	22,300000	51,390000
3,516941	943,096721	167,330	0,322086	22,300000	51,390000
3,513908	938,997242	167,480	0,320356	22,300000	51,390000
3,510916	938,378212	167,630	0,320095	22,300000	51,390000
3,507928	934,412952	167,780	0,318422	22,300000	51,390000
3,504919	934,043848	167,930	0,318266	22,300000	51,390000
3,501922	929,395920	168,080	0,316305	22,300000	51,390000
3,498930	927,648752	168,231	0,315567	22,300000	51,390000
3,495876	924,787332	168,381	0,314360	22,300000	51,390000
3,492974	924,669311	168,531	0,314310	22,300000	51,390000
3,489974	922,874704	168,682	0,313553	22,300000	51,390000
3,486963	918,046273	168,832	0,311515	22,300000	51,390000
3,483923	916,166043	168,982	0,310722	22,300000	51,390000
3,480927	915,570155	169,132	0,310470	22,300000	51,390000
3,477924	911,400094	169,282	0,308710	22,300000	51,390000
3,474921	910,639903	169,433	0,308390	22,300000	51,390000
3,471940	907,339955	169,584	0,306997	22,300000	51,390000
3,468945	906,517282	169,735	0,306650	22,300000	51,390000
3,465893	904,361671	169,886	0,305740	22,300000	51,390000
3,462944	899,721842	170,036	0,303782	22,300000	51,390000
3,459932	898,930410	170,187	0,303448	22,300000	51,390000
3,456926	897,354488	170,338	0,302783	22,300000	51,390000
3,453946	894,697867	170,488	0,301662	22,300000	51,390000
3,450913	892,862763	170,638	0,300888	22,300000	51,390000
3,447911	890,488466	170,789	0,299886	22,300000	51,390000
3,444954	885,863679	170,939	0,297934	22,310000	51,375000
3,441947	886,075422	171,090	0,298023	22,310000	51,375000
3,438911	881,177568	171,240	0,295957	22,310000	51,375000
3,435908	881,576755	171,390	0,296125	22,310000	51,375000
3,432876	876,991308	171,542	0,294190	22,310000	51,375000
3,429921	876,905685	171,692	0,294154	22,310000	51,375000
3,426988	874,820655	171,842	0,293274	22,310000	51,375000
3,423996	872,438259	171,992	0,292269	22,310000	51,375000
3,420905	869,145253	172,142	0,290879	22,310000	51,375000
3,417919	867,844713	172,292	0,290330	22,310000	51,375000
3,414913	865,477359	172,442	0,289331	22,310000	51,375000
3,411954	860,727608	172,592	0,287327	22,310000	51,375000
3,408998	859,528890	172,742	0,286821	22,310000	51,375000
3,405968	858,877462	172,892	0,286546	22,310000	51,375000
3,402973	854,927244	173,042	0,284879	22,300000	51,375000
3,399965	854,042089	173,192	0,284505	22,300000	51,375000
3,396984	851,737217	173,343	0,283533	22,300000	51,375000
3,393969	847,199209	173,494	0,281618	22,300000	51,375000
3,390957	847,018707	173,645	0,281542	22,300000	51,375000
3,387882	842,567480	173,795	0,279663	22,300000	51,375000
3,384985	842,520040	173,946	0,279643	22,300000	51,375000
3,381915	840,536832	174,097	0,278806	22,300000	51,375000
3,378975	835,755841	174,247	0,276789	22,300000	51,375000
3,376015	833,913794	174,397	0,276011	22,300000	51,375000
3,372984	833,741391	174,547	0,275938	22,300000	51,375000
3,369951	828,615595	174,697	0,273775	22,300000	51,375000
3,367005	826,601146	174,848	0,272925	22,300000	51,375000
3,363975	824,249991	174,999	0,271933	22,310000	51,405000
3,361030	824,782240	175,150	0,272158	22,310000	51,405000
3,357934	821,153686	175,301	0,270626	22,310000	51,405000
3,354916	820,582096	175,451	0,270385	22,310000	51,405000
3,351943	815,973508	175,601	0,268440	22,310000	51,405000
3,348988	815,612504	175,752	0,268288	22,310000	51,405000
3,345986	813,448793	175,902	0,267375	22,310000	51,405000
3,342981	808,894587	176,052	0,265453	22,310000	51,405000
3,339923	808,856404	176,203	0,265437	22,310000	51,405000
3,336962	806,339788	176,354	0,264375	22,310000	51,405000
3,333944	803,353405	176,504	0,263115	22,310000	51,405000
3,330908	802,335188	176,654	0,262685	22,310000	51,405000
3,327952	799,128962	176,804	0,261332	22,310000	51,405000
3,324992	795,068822	176,954	0,259619	22,310000	51,405000
3,321905	795,390486	177,104	0,259754	22,310000	51,405000
3,318990	791,478451	177,254	0,258104	22,310000	51,405000
3,315936	788,398345	177,404	0,256804	22,310000	51,405000
3,312934	786,039090	177,554	0,255808	22,310000	51,405000
3,309974	785,710484	177,704	0,255669	22,310000	51,405000
3,306965	781,469842	177,854	0,253880	22,310000	51,405000
3,303979	781,697784	178,004	0,253976	22,310000	51,405000
3,301015	777,112337	178,154	0,252041	22,310000	51,405000
3,297986	777,457142	178,305	0,252187	22,310000	51,405000
3,294971	772,855497	178,455	0,250245	22,310000	51,405000
3,292025	770,645503	178,605	0,249312	22,310000	51,405000
3,288983	769,062639	178,755	0,248644	22,310000	51,405000
3,285957	768,106904	178,906	0,248241	22,310000	51,405000
3,282922	763,818822	179,056	0,246431	22,310000	51,365000
3,279995	761,608829	179,207	0,245499	22,310000	51,365000
3,277002	759,257674	179,358	0,244506	22,310000	51,365000
3,273996	759,303956	179,509	0,244526	22,310000	51,365000
3,271004	757,195785	179,660	0,243636	22,310000	51,365000
3,267981	752,414794	179,810	0,241619	22,310000	51,365000
3,264930	751,403519	179,961	0,241192	22,310000	51,365000
3,261985	750,400344	180,111	0,240769	22,310000	51,365000
3,259012	746,786832	180,261	0,239244	22,310000	51,365000
3,256025	746,136561	180,411	0,238969	22,310000	51,365000
3,252939	743,432501	180,561	0,237828	22,310000	51,365000
3,249964	741,629795	180,712	0,237067	22,310000	51,365000
3,247009	736,871945	180,863	0,235060	22,310000	51,365000
3,244004	734,442110	181,013	0,234034	22,310000	51,405000
3,240955	734,379628	181,163	0,234008	22,310000	51,405000
3,237966	730,483792	181,314	0,232364	22,310000	51,405000
3,235005	730,483792	181,464	0,232364	22,310000	51,405000
3,231985	727,889653	181,614	0,231269	22,310000	51,405000
3,228976	726,001324	181,765	0,230472	22,310000	51,405000
3,225944	722,583355	181,916	0,229030	22,310000	51,405000
3,222950	721,204134	182,066	0,228448	22,310000	51,405000
3,220043	717,363837	182,216	0,226827	22,310000	51,405000
3,216994	714,446877	182,366	0,225596	22,310000	51,405000
3,213973	713,123195	182,516	0,225038	22,310000	51,405000
3,210967	710,159953	182,667	0,223787	22,310000	51,405000
3,208020	710,018791	182,818	0,223728	22,310000	51,405000
3,204972	708,357246	182,969	0,223026	22,300000	51,375000
3,202047	703,177068	183,119	0,220840	22,300000	51,375000
3,198995	703,717417	183,269	0,221068	22,300000	51,375000
3,196010	699,061389	183,420	0,219104	22,300000	51,375000
3,192983	696,475350	183,570	0,218012	22,300000	51,375000
3,189976	694,789507	183,720	0,217301	22,300000	51,375000
3,187035	694,585863	183,870	0,217215	22,300000	51,375000
3,184000	689,883553	184,020	0,215230	22,300000	51,375000
3,180982	687,744141	184,171	0,214328	22,300000	51,375000
3,178064	687,916543	184,321	0,214400	22,300000	51,375000
3,175037	685,038924	184,471	0,213186	22,300000	51,375000
3,172014	683,487300	184,621	0,212531	22,300000	51,375000
3,168967	679,082355	184,771	0,210672	22,300000	51,375000
3,165971	676,888561	184,922	0,209747	22,310000	51,405000
3,163034	674,654269	185,073	0,208804	22,310000	51,405000
3,159989	674,872954	185,223	0,208896	22,310000	51,405000
3,156991	672,341297	185,373	0,207828	22,310000	51,405000
3,153975	667,638987	185,523	0,205843	22,310000	51,405000
3,151041	667,435343	185,674	0,205757	22,310000	51,405000
3,147993	663,343963	185,825	0,204031	22,310000	51,405000
3,145044	662,403269	185,976	0,203634	22,310000	51,405000
3,141970	659,408786	186,126	0,202370	22,310000	51,405000
3,139006	657,857163	186,276	0,201715	22,310000	51,405000
3,135974	654,542173	186,426	0,200316	22,310000	51,405000
3,133017	653,601479	186,576	0,199919	22,310000	51,405000
3,129993	650,129128	186,726	0,198454	22,310000	51,405000
3,127005	649,784323	186,876	0,198309	22,310000	51,405000
3,124034	645,684843	187,026	0,196579	22,310000	51,405000
3,120963	645,206976	187,176	0,196377	22,310000	51,405000
3,118006	641,099396	187,326	0,194644	22,310000	51,405000
3,114982	641,547180	187,476	0,194833	22,310000	51,405000
3,112028	636,851812	187,626	0,192851	22,310000	51,405000
3,108978	636,341547	187,776	0,192636	22,310000	51,405000
3,106019	632,517449	187,926	0,191022	22,310000	51,405000
3,103019	632,351988	188,076	0,190952	22,310000	51,405000
3,099992	630,557381	188,226	0,190195	22,310000	51,405000
3,097040	627,132470	188,376	0,188750	22,310000	51,405000
3,094023	625,980034	188,526	0,188263	22,310000	51,405000
3,090985	623,275974	188,676	0,187122	22,310000	51,405000
3,088057	619,247075	188,826	0,185422	22,310000	51,405000
3,085015	619,475017	188,976	0,185518	22,320000	51,390000
3,082014	617,209484	189,126	0,184562	22,320000	51,390000
3,079023	614,466084	189,276	0,183404	22,320000	51,390000
3,076058	610,179160	189,427	0,181595	22,320000	51,390000
3,073041	610,162961	189,577	0,181588	22,320000	51,390000
3,070017	608,258433	189,727	0,180785	22,320000	51,390000
3,067003	605,844796	189,878	0,179766	22,320000	51,390000
3,063961	601,454893	190,028	0,177914	22,320000	51,390000
3,061044	601,697877	190,179	0,178016	22,320000	51,390000
3,058055	599,425402	190,329	0,177057	22,320000	51,390000
3,055000	594,573830	190,479	0,175010	22,320000	51,390000
3,052036	593,578754	190,630	0,174590	22,320000	51,390000
3,049022	592,958568	190,780	0,174328	22,320000	51,390000
3,046001	590,756674	190,931	0,173399	22,300000	51,390000
3,043017	586,092547	191,081	0,171431	22,300000	51,390000
3,040017	584,862587	191,231	0,170912	22,300000	51,390000
3,037024	583,803873	191,382	0,170465	22,300000	51,390000
3,034071	581,946784	191,532	0,169681	22,300000	51,390000
3,030987	577,110254	191,682	0,167640	22,300000	51,390000
3,028017	574,759099	191,832	0,166648	22,300000	51,390000
3,025088	575,213826	191,982	0,166840	22,300000	51,390000
3,021980	573,089455	192,132	0,165943	22,300000	51,390000
3,018985	568,206642	192,282	0,163883	22,300000	51,390000
3,016025	567,901177	192,432	0,163754	22,300000	51,390000
3,013011	563,903519	192,582	0,162067	22,300000	51,390000
3,010025	563,158370	192,732	0,161752	22,300000	51,390000
3,007034	561,998991	192,883	0,161263	22,300000	51,390000
3,004042	557,186759	193,033	0,159232	22,300000	51,390000
3,001047	555,195451	193,183	0,158392	22,300000	51,390000
2,998010	554,889986	193,333	0,158263	22,300000	51,390000
2,995028	553,149761	193,484	0,157529	22,300000	51,390000
2,992011	550,744224	193,634	0,156514	22,300000	51,390000
2,989003	548,705476	193,785	0,155653	22,300000	51,390000
2,986029	546,275641	193,935	0,154628	22,300000	51,390000
2,983049	544,763357	194,085	0,153990	22,300000	51,390000
2,980005	539,841204	194,235	0,151913	22,300000	51,390000
2,977082	538,359005	194,385	0,151287	22,300000	51,390000
2,973969	537,473850	194,535	0,150914	22,300000	51,390000
2,970977	533,100146	194,685	0,149068	22,300000	51,390000
2,968002	533,147586	194,836	0,149088	22,300000	51,390000
2,965053	529,212409	194,986	0,147427	22,300000	51,375000
2,962008	529,181169	195,136	0,147414	22,300000	51,375000
2,959015	526,705050	195,286	0,146369	22,300000	51,375000
2,956027	524,643161	195,436	0,145499	22,300000	51,375000
2,953021	522,433168	195,586	0,144566	22,300000	51,375000
2,950051	520,167636	195,737	0,143610	22,300000	51,375000
2,947066	516,123695	195,887	0,141904	22,300000	51,375000
2,944073	515,864512	196,038	0,141794	22,300000	51,375000
2,941039	512,948710	196,188	0,140564	22,300000	51,375000
2,938073	508,881628	196,338	0,138848	22,300000	51,375000
2,934977	507,611171	196,488	0,138312	22,300000	51,375000
2,932098	506,890320	196,639	0,138007	22,300000	51,375000
2,929049	504,161961	196,790	0,136856	22,300000	51,375000
2,926050	500,361004	196,940	0,135252	22,310000	51,415000
2,923052	499,592713	197,090	0,134928	22,310000	51,415000
2,920012	498,057289	197,240	0,134280	22,310000	51,415000
2,917010	495,407611	197,390	0,133162	22,310000	51,415000
2,914017	491,300031	197,540	0,131428	22,310000	51,415000
2,911090	490,948284	197,690	0,131280	22,310000	51,415000
2,908040	489,364262	197,840	0,130611	22,310000	51,415000
2,905003	484,614512	197,990	0,128607	22,310000	51,415000
2,902041	485,014857	198,140	0,128776	22,310000	51,415000
2,899038	482,506341	198,291	0,127717	22,310000	51,415000
2,896107	478,234458	198,441	0,125915	22,310000	51,415000
2,893058	476,196868	198,591	0,125055	22,310000	51,415000
2,890027	473,891995	198,742	0,124082	22,310000	51,415000
2,887105	473,900094	198,892	0,124085	22,310000	51,415000
2,884035	469,730034	199,042	0,122326	22,320000	51,405000
2,881039	467,324496	199,193	0,121311	22,320000	51,405000
2,878023	465,960317	199,343	0,120735	22,320000	51,405000
2,875027	465,419968	199,494	0,120507	22,320000	51,405000
2,872043	461,085604	199,644	0,118678	22,320000	51,405000
2,869069	461,046264	199,795	0,118661	22,320000	51,405000
2,866061	457,549615	199,945	0,117186	22,320000	51,405000
2,863082	454,054123	200,096	0,115710	22,320000	51,405000
2,860032	454,203384	200,247	0,115773	22,320000	51,405000
2,857044	452,157694	200,397	0,114910	22,320000	51,405000
2,854036	448,803364	200,547	0,113495	22,320000	51,405000
2,851054	447,941351	200,698	0,113131	22,320000	51,405000
2,848061	444,751324	200,848	0,111785	22,320000	51,405000
2,845069	443,630128	200,998	0,111312	22,300000	51,405000
2,842018	440,415803	201,148	0,109955	22,300000	51,405000
2,839068	436,497982	201,299	0,108302	22,300000	51,405000
2,836101	434,592297	201,449	0,107498	22,300000	51,405000
2,833052	432,444785	201,600	0,106591	22,300000	51,405000
2,830020	432,751407	201,750	0,106721	22,300000	51,405000
2,827064	428,400844	201,900	0,104885	22,300000	51,405000
2,824110	428,259682	202,050	0,104825	22,300000	51,405000
2,820986	426,112170	202,200	0,103919	22,300000	51,405000
2,818040	424,043339	202,351	0,103046	22,300000	51,405000
2,815049	421,605404	202,501	0,102017	22,300000	51,405000
2,812028	416,972517	202,651	0,100062	22,300000	51,405000
2,809102	414,841204	202,801	0,099163	22,300000	51,405000
2,806000	414,652603	202,951	0,099083	22,310000	51,375000
2,803028	412,881137	203,101	0,098335	22,310000	51,375000
2,800078	408,162628	203,251	0,096344	22,310000	51,375000
2,796991	407,363096	203,402	0,096007	22,310000	51,375000
2,794068	403,624620	203,552	0,094429	22,310000	51,375000
2,791105	403,648919	203,703	0,094439	22,310000	51,375000
2,788055	399,651261	203,853	0,092752	22,310000	51,375000
2,785127	398,201459	204,003	0,092141	22,310000	51,375000
2,782062	396,993483	204,153	0,091631	22,310000	51,375000
2,779037	392,502916	204,304	0,089736	22,310000	51,375000
2,776034	393,435510	204,454	0,090129	22,310000	51,375000
2,773030	389,477192	204,604	0,088459	22,310000	51,375000
2,770035	388,779482	204,754	0,088165	22,310000	51,375000
2,767098	385,495733	204,904	0,086779	22,310000	51,375000
2,764059	383,583105	205,054	0,085972	22,300000	51,415000
2,760982	381,890320	205,205	0,085257	22,300000	51,415000
2,758085	377,508516	205,356	0,083408	22,300000	51,415000
2,755046	377,203051	205,506	0,083279	22,300000	51,415000
2,752052	375,408444	205,656	0,082522	22,300000	51,415000
2,749068	373,095472	205,806	0,081546	22,300000	51,415000
2,746045	368,871029	205,957	0,079763	22,300000	51,415000
2,743025	368,526224	206,107	0,079618	22,300000	51,415000
2,740071	365,665960	206,258	0,078411	22,300000	51,415000
2,737030	364,388561	206,409	0,077872	22,300000	51,415000
2,734064	361,166136	206,560	0,076512	22,300000	51,415000
2,731088	360,116678	206,710	0,076069	22,300000	51,415000
2,728039	357,153436	206,861	0,074818	22,300000	51,415000
2,725082	353,078255	207,011	0,073099	22,310000	51,375000
2,722046	351,556715	207,161	0,072457	22,310000	51,375000
2,719031	348,891995	207,311	0,071332	22,310000	51,375000
2,716030	346,877546	207,461	0,070482	22,310000	51,375000
2,713066	344,628212	207,612	0,069533	22,310000	51,375000
2,710079	343,311473	207,762	0,068977	22,310000	51,375000
2,707066	342,590621	207,912	0,068673	22,310000	51,375000
2,704077	337,872112	208,062	0,066682	22,310000	51,375000
2,701053	335,849563	208,212	0,065828	22,310000	51,375000
2,698090	334,807048	208,362	0,065388	22,310000	51,375000
2,695030	331,147253	208,512	0,063844	22,310000	51,375000
2,692082	329,454467	208,663	0,063129	22,310000	51,375000
2,689066	329,658111	208,814	0,063215	22,310000	51,375000
2,686085	324,900261	208,965	0,061208	22,310000	51,375000
2,683047	322,846471	209,115	0,060341	22,310000	51,375000
2,680000	322,885812	209,266	0,060357	22,310000	51,375000
2,677097	319,147336	209,416	0,058780	22,310000	51,375000
2,674032	318,285323	209,566	0,058416	22,310000	51,375000
2,671044	314,381387	209,716	0,056769	22,310000	51,375000
2,668076	312,273215	209,867	0,055879	22,310000	51,375000
2,665115	310,493650	210,018	0,055128	22,310000	51,375000
2,662110	309,772799	210,168	0,054824	22,310000	51,375000
2,659095	307,664627	210,318	0,053934	22,310000	51,375000
2,656059	303,001657	210,468	0,051966	22,310000	51,375000
2,653023	301,613179	210,618	0,051380	22,310000	51,375000
2,650104	301,378295	210,769	0,051281	22,310000	51,375000
2,647101	299,380045	210,920	0,050438	22,300000	51,375000
2,644009	294,935760	211,070	0,048563	22,300000	51,375000
2,641068	292,725766	211,221	0,047630	22,300000	51,375000
2,638012	290,545857	211,371	0,046710	22,300000	51,375000
2,635056	290,624537	211,522	0,046743	22,300000	51,375000
2,632017	286,227692	211,672	0,044888	22,300000	51,375000
2,629040	286,439435	211,823	0,044977	22,300000	51,375000
2,626079	282,410536	211,974	0,043277	22,300000	51,375000
2,623019	281,807705	212,124	0,043022	22,300000	51,375000
2,620062	277,747566	212,275	0,041309	22,300000	51,375000
2,617013	277,558964	212,425	0,041229	22,300000	51,375000
2,614125	276,066351	212,575	0,040600	22,300000	51,375000
2,611062	271,100230	212,725	0,038504	22,300000	51,375000
2,608075	270,018374	212,876	0,038047	22,300000	51,375000
2,605076	268,937676	213,026	0,037591	22,310000	51,390000
2,602039	265,457226	213,176	0,036123	22,310000	51,390000
2,599052	264,955060	213,326	0,035911	22,310000	51,390000
2,596066	261,311463	213,477	0,034373	22,310000	51,390000
2,593095	260,817397	213,627	0,034165	22,310000	51,390000
2,590065	257,783573	213,778	0,032884	22,310000	51,390000
2,587051	253,920135	213,928	0,031254	22,310000	51,390000
2,584104	253,943276	214,078	0,031264	22,310000	51,390000
2,581062	249,530232	214,228	0,029401	22,310000	51,390000
2,578059	249,733875	214,378	0,029487	22,310000	51,390000
2,575036	245,360171	214,528	0,027642	22,310000	51,390000
2,572063	245,235208	214,678	0,027589	22,310000	51,390000
2,569037	243,706726	214,828	0,026944	22,310000	51,390000
2,566044	240,508599	214,978	0,025594	22,300000	51,350000
2,563055	236,965668	215,128	0,024099	22,300000	51,350000
2,560045	237,349813	215,278	0,024261	22,300000	51,350000
2,557030	232,859245	215,428	0,022366	22,300000	51,350000
2,554067	232,145337	215,578	0,022065	22,300000	51,350000
2,551052	228,423060	215,728	0,020494	22,300000	51,350000
2,548021	228,524882	215,878	0,020537	22,300000	51,350000
2,545099	226,714075	216,029	0,019773	22,300000	51,350000
2,542051	224,300439	216,180	0,018754	22,300000	51,350000
2,539110	219,933677	216,330	0,016912	22,300000	51,350000
2,536078	220,537665	216,481	0,017167	22,300000	51,350000
2,533079	216,219500	216,631	0,015344	22,300000	51,350000
2,530003	213,757266	216,781	0,014305	22,300000	51,350000
2,527076	211,900178	216,931	0,013521	22,300000	51,350000
2,524044	211,186269	217,081	0,013220	22,300000	51,350000
2,521053	207,981200	217,231	0,011868	22,300000	51,350000
2,518124	207,816897	217,381	0,011798	22,300000	51,350000
2,515048	205,260941	217,532	0,010720	22,300000	51,350000
2,512169	203,591297	217,683	0,010015	22,300000	51,350000
2,509121	201,397503	217,834	0,009089	22,300000	51,350000
2,506095	199,281231	217,984	0,008196	22,300000	51,350000
2,503076	195,377296	218,134	0,006549	22,300000	51,350000
2,500072	194,641403	218,284	0,006238	22,300000	51,350000
2,497128	192,540173	218,434	0,005352	22,300000	51,350000
2,494045	190,502583	218,585	0,004492	22,300000	51,350000
2,491063	187,015190	218,735	0,003020	22,300000	51,350000
2,488087	186,074496	218,886	0,002623	22,300000	51,350000
2,485128	184,145670	219,036	0,001809	22,320000	51,405000
2,482049	179,858746	219,186	0,000000	22,320000	51,405000
2,479025	179,545181	219,336	-0,000132	22,320000	51,405000
2,476086	175,578764	219,486	-0,001806	22,320000	51,405000
2,473045	175,148336	219,636	-0,001988	22,320000	51,405000
2,470066	170,993317	219,786	-0,003741	22,320000	51,405000
2,467055	170,899595	219,936	-0,003781	22,320000	51,405000
2,464070	169,223008	220,086	-0,004488	22,320000	51,405000
2,461097	166,683251	220,236	-0,005560	22,320000	51,405000
2,458048	162,348887	220,386	-0,007389	22,320000	51,405000
2,455084	162,254008	220,536	-0,007429	22,320000	51,405000
2,452139	160,592463	220,687	-0,008130	22,320000	51,405000
2,449087	158,170727	220,837	-0,009152	22,320000	51,405000
2,446027	155,239883	220,987	-0,010389	22,310000	51,390000
2,443047	154,087446	221,137	-0,010875	22,310000	51,390000
2,440034	149,423319	221,288	-0,012844	22,310000	51,390000
2,437068	147,275807	221,438	-0,013750	22,310000	51,390000
2,434051	145,182677	221,588	-0,014633	22,310000	51,390000
2,431067	143,239966	221,738	-0,015453	22,310000	51,390000
2,428062	142,722758	221,888	-0,015671	22,310000	51,390000
2,425123	141,570322	222,038	-0,016158	22,310000	51,390000
2,422098	137,956809	222,188	-0,017683	22,310000	51,390000
2,419040	137,008016	222,338	-0,018083	22,310000	51,390000
2,415985	132,673652	222,488	-0,019912	22,310000	51,390000
2,413097	133,238300	222,639	-0,019674	22,310000	51,390000
2,410026	130,627962	222,789	-0,020775	22,310000	51,390000
2,407052	126,089955	222,940	-0,022690	22,310000	51,390000
2,404067	126,254258	223,090	-0,022621	22,310000	51,390000
2,401067	124,162285	223,240	-0,023504	22,310000	51,390000
2,398062	119,874204	223,390	-0,025313	22,310000	51,390000
2,395106	119,741142	223,540	-0,025370	22,310000	51,390000
2,392061	118,079597	223,690	-0,026071	22,310000	51,390000
2,389126	115,634719	223,841	-0,027103	22,310000	51,390000
2,386058	113,682751	223,992	-0,027926	22,310000	51,390000
2,383034	108,893661	224,142	-0,029947	22,310000	51,390000
2,380140	109,113503	224,292	-0,029854	22,310000	51,390000
2,377064	107,286498	224,443	-0,030625	22,310000	51,390000
2,374100	102,669811	224,593	-0,032574	22,310000	51,390000
2,371014	102,858412	224,744	-0,032494	22,310000	51,390000
2,368041	98,406028	224,894	-0,034373	22,310000	51,390000
2,365071	96,557039	225,044	-0,035153	22,310000	51,390000
2,362006	96,274715	225,195	-0,035272	22,310000	51,390000
2,359041	92,434418	225,346	-0,036893	22,310000	51,390000
2,356103	89,909703	225,496	-0,037958	22,310000	51,390000
2,353090	88,945868	225,646	-0,038365	22,310000	51,390000
2,350038	87,887154	225,796	-0,038812	22,310000	51,390000
2,347075	83,498408	225,946	-0,040664	22,310000	51,390000
2,344067	84,102396	226,096	-0,040409	22,310000	51,390000
2,341118	79,187185	226,246	-0,042483	22,310000	51,390000
2,338059	76,937852	226,397	-0,043433	22,310000	51,390000
2,335072	75,479950	226,547	-0,044048	22,310000	51,390000
2,332121	74,970842	226,697	-0,044263	22,310000	51,390000
2,329071	71,795857	226,847	-0,045603	22,310000	51,390000
2,326111	71,216167	226,997	-0,045847	22,290000	51,390000
2,323081	67,571414	227,147	-0,047385	22,290000	51,390000
2,320051	64,655611	227,298	-0,048616	22,290000	51,390000
2,317125	62,672403	227,448	-0,049453	22,290000	51,390000
2,314068	62,994067	227,598	-0,049317	22,290000	51,390000
2,311048	59,209308	227,748	-0,050914	22,290000	51,390000
2,308110	57,241142	227,898	-0,051745	22,290000	51,390000
2,305109	55,328514	228,048	-0,052552	22,290000	51,390000
2,302104	54,756924	228,199	-0,052793	22,290000	51,390000
2,299067	52,452051	228,349	-0,053766	22,290000	51,390000
2,296081	50,289498	228,499	-0,054678	22,290000	51,390000
2,293046	47,671060	228,650	-0,055783	22,290000	51,390000
2,290043	43,681502	228,800	-0,057467	22,290000	51,390000
2,287091	43,399178	228,951	-0,057586	22,310000	51,390000
2,284086	42,161119	229,101	-0,058108	22,310000	51,390000
2,281120	39,959225	229,252	-0,059038	22,310000	51,390000
2,278077	37,826755	229,402	-0,059938	22,310000	51,390000
2,275070	35,726683	229,552	-0,060824	22,310000	51,390000
2,272071	31,351822	229,703	-0,062670	22,310000	51,390000
2,269051	29,291090	229,854	-0,063540	22,310000	51,390000
2,266069	28,663961	230,004	-0,063804	22,310000	51,390000
2,263013	25,145327	230,155	-0,065289	22,310000	51,390000
2,260042	24,235875	230,306	-0,065673	22,310000	51,390000
2,257035	23,553206	230,456	-0,065961	22,310000	51,390000
2,254149	19,940851	230,606	-0,067485	22,310000	51,390000
2,251049	19,305622	230,757	-0,067753	22,310000	51,390000
2,248086	16,036915	230,907	-0,069133	22,310000	51,390000
2,245043	12,996149	231,058	-0,070416	22,300000	51,405000
2,242041	12,674485	231,209	-0,070552	22,300000	51,405000
2,239045	8,842287	231,359	-0,072169	22,300000	51,405000
2,236104	8,983449	231,509	-0,072109	22,300000	51,405000
2,233055	7,195785	231,660	-0,072864	22,300000	51,405000
2,230056	4,734708	231,810	-0,073902	22,300000	51,405000
2,227005	2,743400	231,960	-0,074743	22,300000	51,405000
2,224081	0,595888	232,111	-0,075649	22,300000	51,405000
2,221035	-3,534832	232,261	-0,077392	22,300000	51,405000
2,218056	-5,823506	232,411	-0,078358	22,300000	51,405000
2,215075	-5,736726	232,562	-0,078321	22,300000	51,405000
2,212066	-7,460752	232,712	-0,079049	22,300000	51,405000
2,209114	-11,693295	232,862	-0,080835	22,300000	51,405000
2,206069	-11,811315	233,013	-0,080885	22,320000	51,375000
2,203030	-15,377388	233,163	-0,082390	22,320000	51,375000
2,200078	-15,605330	233,313	-0,082486	22,320000	51,375000
2,197105	-20,166478	233,464	-0,084411	22,320000	51,375000
2,194051	-19,774234	233,615	-0,084245	22,320000	51,375000
2,191138	-22,824256	233,766	-0,085532	22,320000	51,375000
2,188071	-23,795033	233,916	-0,085942	22,320000	51,375000
2,185101	-26,538433	234,066	-0,087100	22,320000	51,375000
2,182005	-29,940203	234,217	-0,088535	22,320000	51,375000
2,179043	-29,900863	234,367	-0,088519	22,320000	51,375000
2,176077	-31,539266	234,517	-0,089210	22,320000	51,375000
2,173029	-35,771808	234,667	-0,090996	22,320000	51,375000
2,170024	-35,379563	234,817	-0,090831	22,320000	51,375000
2,167096	-37,669394	234,967	-0,091797	22,300000	51,365000
2,164096	-41,963261	235,117	-0,093609	22,300000	51,365000
2,161045	-42,191203	235,268	-0,093705	22,300000	51,365000
2,158090	-46,243243	235,418	-0,095415	22,300000	51,365000
2,155100	-45,726035	235,569	-0,095197	22,300000	51,365000
2,152074	-47,835364	235,720	-0,096087	22,300000	51,365000
2,149095	-52,294690	235,870	-0,097969	22,300000	51,365000
2,146120	-52,232209	236,020	-0,097942	22,300000	51,365000
2,143031	-56,425411	236,170	-0,099712	22,300000	51,365000
2,140057	-57,702810	236,320	-0,100251	22,300000	51,365000
2,137048	-60,351331	236,470	-0,101369	22,300000	51,365000
2,134113	-60,109505	236,620	-0,101267	22,300000	51,365000
2,131027	-62,288257	236,770	-0,102186	22,300000	51,365000
2,128079	-65,501426	236,921	-0,103542	22,300000	51,415000
2,125072	-68,918237	237,072	-0,104984	22,300000	51,415000
2,122066	-69,742067	237,222	-0,105332	22,300000	51,415000
2,119081	-70,830865	237,372	-0,105791	22,300000	51,415000
2,116143	-73,684186	237,522	-0,106995	22,300000	51,415000
2,113116	-77,015375	237,672	-0,108401	22,300000	51,415000
2,110029	-77,956069	237,822	-0,108798	22,300000	51,415000
2,107117	-78,394596	237,972	-0,108983	22,300000	51,415000
2,104061	-80,510867	238,122	-0,109876	22,300000	51,415000
2,101115	-84,963252	238,273	-0,111755	22,300000	51,415000
2,098067	-86,985801	238,424	-0,112608	22,300000	51,415000
2,095009	-88,670487	238,574	-0,113319	22,300000	51,415000
2,092097	-88,772308	238,724	-0,113362	22,300000	51,415000
2,089073	-91,781833	238,874	-0,114632	22,300000	51,415000
2,086057	-92,903029	239,025	-0,115105	22,300000	51,375000
2,083087	-97,181854	239,175	-0,116911	22,300000	51,375000
2,080068	-96,822006	239,326	-0,116759	22,300000	51,375000
2,077059	-100,967769	239,476	-0,118509	22,300000	51,375000
2,074091	-103,131480	239,626	-0,119422	22,300000	51,375000
2,071056	-105,490734	239,776	-0,120417	22,300000	51,375000
2,068024	-104,950385	239,926	-0,120189	22,300000	51,375000
2,065045	-109,260451	240,077	-0,122008	22,300000	51,375000
2,062103	-108,892504	240,228	-0,121853	22,300000	51,375000
2,059055	-113,172486	240,378	-0,123659	22,300000	51,375000
2,056074	-112,905204	240,528	-0,123546	22,300000	51,375000
2,053120	-115,758525	240,678	-0,124750	22,300000	51,375000
2,050089	-118,368863	240,828	-0,125852	22,300000	51,375000
2,047054	-120,570757	240,978	-0,126781	22,300000	51,375000
2,044025	-123,753841	241,128	-0,128125	22,300000	51,375000
2,041046	-123,322256	241,278	-0,127942	22,300000	51,375000
2,038083	-124,960660	241,428	-0,128634	22,300000	51,375000
2,035107	-128,581115	241,578	-0,130162	22,300000	51,375000
2,032043	-129,020799	241,728	-0,130347	22,300000	51,375000
2,029033	-130,784166	241,879	-0,131091	22,300000	51,375000
2,026087	-135,220351	242,029	-0,132963	22,300000	51,375000
2,023145	-136,136747	242,179	-0,133350	22,300000	51,375000
2,020110	-137,023058	242,330	-0,133724	22,300000	51,375000
2,017127	-139,170570	242,481	-0,134630	22,300000	51,375000
2,014101	-140,942036	242,631	-0,135378	22,300000	51,375000
2,011118	-143,685436	242,781	-0,136536	22,300000	51,375000
2,008019	-145,025317	242,931	-0,137101	22,300000	51,405000
2,005100	-147,760617	243,081	-0,138255	22,300000	51,405000
2,002041	-148,732551	243,231	-0,138666	22,300000	51,405000
1,999060	-151,507192	243,381	-0,139836	22,300000	51,405000
1,996048	-155,245668	243,531	-0,141414	22,300000	51,405000
1,993152	-154,963344	243,681	-0,141295	22,300000	51,405000
1,990098	-159,274567	243,832	-0,143114	22,300000	51,405000
1,987113	-158,632396	243,983	-0,142843	22,300000	51,405000
1,984090	-160,395762	244,133	-0,143587	22,300000	51,405000
1,981055	-164,549624	244,283	-0,145340	22,300000	51,405000
1,978065	-166,900779	244,434	-0,146333	22,300000	51,405000
1,975052	-166,697136	244,584	-0,146247	22,300000	51,405000
1,972043	-170,302549	244,735	-0,147768	22,300000	51,405000
1,969096	-170,499250	244,886	-0,147851	22,300000	51,405000
1,966079	-172,435019	245,036	-0,148668	22,310000	51,405000
1,963075	-176,800624	245,186	-0,150510	22,310000	51,405000
1,960098	-177,772558	245,336	-0,150920	22,310000	51,405000
1,957112	-177,803799	245,486	-0,150934	22,310000	51,405000
1,954077	-180,225535	245,636	-0,151956	22,310000	51,405000
1,951093	-181,926420	245,786	-0,152673	22,310000	51,405000
1,948098	-185,531833	245,936	-0,154195	22,310000	51,405000
1,945155	-185,791016	246,087	-0,154304	22,310000	51,405000
1,942109	-189,608172	246,237	-0,155915	22,310000	51,405000
1,939124	-192,162970	246,388	-0,156993	22,310000	51,405000
1,936043	-191,870233	246,538	-0,156870	22,310000	51,405000
1,933093	-196,324932	246,689	-0,158750	22,310000	51,405000
1,930133	-195,956985	246,840	-0,158594	22,310000	51,405000
1,927096	-200,275150	246,991	-0,160417	22,300000	51,390000
1,924099	-200,094648	247,141	-0,160340	22,300000	51,390000
1,921051	-204,241567	247,291	-0,162090	22,300000	51,390000
1,918099	-204,202227	247,441	-0,162074	22,300000	51,390000
1,915147	-207,886321	247,591	-0,163628	22,300000	51,390000
1,912114	-208,035582	247,741	-0,163691	22,300000	51,390000
1,909030	-211,099489	247,891	-0,164984	22,300000	51,390000
1,906081	-211,805298	248,041	-0,165282	22,300000	51,390000
1,903111	-215,332031	248,192	-0,166771	22,300000	51,390000
1,900084	-215,699978	248,342	-0,166926	22,300000	51,390000
1,897079	-218,999926	248,493	-0,168318	22,300000	51,390000
1,894099	-221,946969	248,644	-0,169562	22,300000	51,390000
1,891097	-222,700218	248,794	-0,169880	22,300000	51,390000
1,888116	-223,389829	248,945	-0,170171	22,310000	51,390000
1,885091	-227,386330	249,096	-0,171857	22,310000	51,390000
1,882049	-229,683103	249,247	-0,172827	22,310000	51,390000
1,879125	-229,142754	249,398	-0,172599	22,310000	51,390000
1,876124	-232,230959	249,548	-0,173902	22,310000	51,390000
1,873152	-232,974952	249,699	-0,174216	22,310000	51,390000
1,870118	-234,880637	249,849	-0,175020	22,310000	51,390000
1,867015	-236,980709	249,999	-0,175906	22,310000	51,390000
1,864090	-238,822756	250,149	-0,176684	22,310000	51,390000
1,861093	-243,360763	250,299	-0,178599	22,310000	51,390000
1,858110	-243,753008	250,449	-0,178764	22,310000	51,390000
1,855107	-244,779325	250,600	-0,179197	22,310000	51,390000
1,852105	-248,502758	250,750	-0,180769	22,310000	51,390000
1,849140	-248,164896	250,900	-0,180626	22,310000	51,390000
1,846090	-251,958910	251,051	-0,182227	22,320000	51,405000
1,843057	-252,272475	251,202	-0,182359	22,320000	51,405000
1,840051	-253,958318	251,352	-0,183071	22,320000	51,405000
1,837050	-257,821757	251,502	-0,184701	22,320000	51,405000
1,834117	-258,190860	251,653	-0,184857	22,320000	51,405000
1,831062	-262,509025	251,803	-0,186679	22,320000	51,405000
1,828068	-262,994992	251,953	-0,186884	22,320000	51,405000
1,825137	-264,099989	252,104	-0,187351	22,320000	51,405000
1,822097	-265,769633	252,254	-0,188055	22,320000	51,405000
1,819077	-268,042108	252,404	-0,189014	22,320000	51,405000
1,816097	-269,939694	252,554	-0,189815	22,320000	51,405000
1,813050	-272,760617	252,704	-0,191005	22,320000	51,405000
1,810084	-274,939370	252,854	-0,191925	22,320000	51,405000
1,807062	-275,888163	253,004	-0,192325	22,320000	51,405000
1,804049	-278,020633	253,155	-0,193225	22,320000	51,405000
1,801101	-282,087715	253,305	-0,194941	22,320000	51,405000
1,798070	-282,370039	253,456	-0,195061	22,320000	51,405000
1,795073	-286,187195	253,606	-0,196671	22,320000	51,405000
1,792031	-286,085373	253,756	-0,196628	22,320000	51,405000
1,789070	-287,528232	253,906	-0,197237	22,320000	51,405000
1,786124	-289,823848	254,056	-0,198206	22,320000	51,405000
1,783113	-291,657796	254,206	-0,198980	22,320000	51,405000
1,780005	-293,389922	254,356	-0,199711	22,320000	51,405000
1,777054	-295,279408	254,506	-0,200508	22,320000	51,405000
1,774046	-299,221527	254,656	-0,202172	22,320000	51,405000
1,771113	-300,718769	254,807	-0,202804	22,320000	51,405000
1,768097	-301,432677	254,958	-0,203105	22,310000	51,390000
1,765128	-302,835040	255,108	-0,203697	22,310000	51,390000
1,762114	-304,214261	255,258	-0,204279	22,310000	51,390000
1,759104	-306,323589	255,409	-0,205169	22,310000	51,390000
1,756077	-308,376222	255,559	-0,206035	22,310000	51,390000
1,753069	-310,296949	255,709	-0,206846	22,310000	51,390000
1,750084	-311,989735	255,859	-0,207560	22,310000	51,390000
1,747171	-315,156620	256,009	-0,208896	22,310000	51,390000
1,744092	-315,462085	256,160	-0,209025	22,310000	51,390000
1,741055	-317,084290	256,310	-0,209710	22,310000	51,390000
1,738132	-321,505434	256,460	-0,211576	22,310000	51,390000
1,735009	-321,356172	256,610	-0,211513	22,310000	51,390000
1,732135	-323,033916	256,760	-0,212221	22,310000	51,390000
1,729162	-327,085956	256,910	-0,213931	22,310000	51,390000
1,726119	-329,319091	257,060	-0,214873	22,310000	51,375000
1,723103	-329,538933	257,210	-0,214966	22,310000	51,375000
1,720086	-332,996242	257,360	-0,216425	22,310000	51,375000
1,717182	-332,643337	257,510	-0,216276	22,310000	51,375000
1,714129	-334,257442	257,660	-0,216957	22,310000	51,375000
1,711112	-337,361846	257,810	-0,218267	22,310000	51,375000
1,708140	-340,849239	257,961	-0,219739	22,310000	51,375000
1,705064	-340,896679	258,111	-0,219759	22,310000	51,375000
1,702084	-344,548375	258,261	-0,221300	22,310000	51,375000
1,699126	-343,663220	258,412	-0,220926	22,310000	51,375000
1,696113	-346,101155	258,562	-0,221955	22,310000	51,375000
1,693136	-347,950144	258,712	-0,222735	22,310000	51,375000
1,690076	-350,043274	258,862	-0,223619	22,310000	51,375000
1,687107	-352,174587	259,012	-0,224518	22,310000	51,390000
1,684078	-353,538766	259,162	-0,225094	22,310000	51,390000
1,681101	-355,725618	259,312	-0,226017	22,310000	51,390000
1,678126	-358,555798	259,463	-0,227211	22,310000	51,390000
1,675097	-361,337382	259,613	-0,228385	22,310000	51,390000
1,672081	-361,063157	259,764	-0,228269	22,310000	51,390000
1,669137	-363,893337	259,914	-0,229463	22,310000	51,390000
1,666140	-366,863522	260,064	-0,230717	22,310000	51,390000
1,663100	-366,746658	260,214	-0,230667	22,310000	51,390000
1,660074	-370,116030	260,364	-0,232089	22,310000	51,390000
1,657092	-369,873047	260,514	-0,231987	22,310000	51,390000
1,654145	-371,997417	260,665	-0,232883	22,310000	51,390000
1,651115	-375,924495	260,815	-0,234541	22,310000	51,390000
1,648085	-375,602831	260,966	-0,234405	22,310000	51,430000
1,645117	-379,639829	261,116	-0,236108	22,310000	51,430000
1,642065	-380,306298	261,267	-0,236390	22,310000	51,430000
1,639101	-380,956568	261,418	-0,236664	22,310000	51,430000
1,636116	-382,743076	261,568	-0,237418	22,310000	51,430000
1,633120	-386,967519	261,718	-0,239201	22,310000	51,430000
1,630100	-386,615771	261,869	-0,239052	22,310000	51,430000
1,627088	-390,848313	262,019	-0,240838	22,310000	51,430000
1,624139	-390,910795	262,169	-0,240865	22,310000	51,430000
1,621085	-393,536174	262,319	-0,241973	22,310000	51,430000
1,618131	-394,030241	262,469	-0,242181	22,310000	51,430000
1,615109	-398,239642	262,619	-0,243958	22,310000	51,430000
1,612133	-398,615688	262,769	-0,244116	22,310000	51,430000
1,609086	-399,791266	262,919	-0,244612	22,310000	51,430000
1,606121	-404,227451	263,069	-0,246484	22,310000	51,430000
1,603076	-406,194461	263,219	-0,247314	22,310000	51,430000
1,600152	-406,123880	263,369	-0,247285	22,310000	51,430000
1,597111	-408,083947	263,519	-0,248112	22,310000	51,430000
1,594187	-409,525650	263,669	-0,248720	22,310000	51,430000
1,591105	-411,485717	263,819	-0,249547	22,310000	51,430000
1,588130	-413,452727	263,969	-0,250377	22,310000	51,430000
1,585078	-415,874463	264,120	-0,251399	22,310000	51,430000
1,582094	-419,260034	264,270	-0,252828	22,310000	51,430000
1,579106	-418,602821	264,420	-0,252551	22,310000	51,430000
1,576090	-420,537433	264,570	-0,253367	22,310000	51,430000
1,573085	-422,544940	264,720	-0,254214	22,310000	51,430000
1,570115	-424,065323	264,870	-0,254856	22,310000	51,430000
1,567124	-425,538266	265,020	-0,255478	22,310000	51,405000
1,564091	-427,349072	265,171	-0,256242	22,310000	51,405000
1,561091	-431,197469	265,321	-0,257866	22,310000	51,405000
1,558120	-433,313740	265,472	-0,258759	22,310000	51,405000
1,555065	-433,149437	265,622	-0,258689	22,310000	51,405000
1,552153	-434,802882	265,773	-0,259387	22,310000	51,405000
1,549197	-437,679345	265,923	-0,260601	22,310000	51,405000
1,546105	-440,619446	266,074	-0,261842	22,310000	51,405000
1,543114	-442,625796	266,224	-0,262688	22,310000	51,405000
1,540117	-441,959327	266,374	-0,262407	22,310000	51,405000
1,537125	-444,098739	266,524	-0,263310	22,310000	51,405000
1,534090	-448,166978	266,674	-0,265027	22,310000	51,405000
1,531126	-448,715427	266,824	-0,265258	22,310000	51,405000
1,528092	-449,648021	266,974	-0,265652	22,310000	51,405000
1,525137	-451,309566	267,124	-0,266353	22,310000	51,405000
1,522103	-453,261534	267,275	-0,267177	22,310000	51,405000
1,519151	-455,855672	267,426	-0,268271	22,310000	51,405000
1,516116	-457,423495	267,576	-0,268933	22,310000	51,405000
1,513068	-459,523567	267,726	-0,269819	22,310000	51,405000
1,510079	-462,063324	267,876	-0,270891	22,310000	51,405000
1,507137	-463,184519	268,026	-0,271364	22,310000	51,405000
1,504121	-466,390745	268,176	-0,272717	22,310000	51,405000
1,501116	-466,813074	268,326	-0,272896	22,310000	51,405000
1,498109	-468,372797	268,476	-0,273554	22,310000	51,405000
1,495139	-470,559649	268,627	-0,274477	22,310000	51,405000
1,492138	-473,679095	268,778	-0,275793	22,310000	51,405000
1,489136	-473,969518	268,928	-0,275916	22,300000	51,365000
1,486183	-478,037757	269,079	-0,277632	22,300000	51,365000
1,483120	-477,778575	269,229	-0,277523	22,300000	51,365000
1,480157	-479,668061	269,379	-0,278320	22,300000	51,365000
1,477126	-481,344648	269,530	-0,279028	22,300000	51,365000
1,474134	-484,527733	269,680	-0,280371	22,300000	51,365000
1,471097	-484,723276	269,830	-0,280454	22,300000	51,365000
1,468133	-487,717760	269,980	-0,281717	22,300000	51,365000
1,465123	-488,673495	270,131	-0,282121	22,300000	51,365000
1,462095	-492,616771	270,281	-0,283785	22,300000	51,365000
1,459126	-491,957244	270,431	-0,283506	22,300000	51,365000
1,456163	-494,991067	270,582	-0,284787	22,300000	51,365000
1,453114	-498,016791	270,732	-0,286063	22,300000	51,365000
1,450069	-499,890079	270,882	-0,286854	22,300000	51,365000
1,447065	-501,629147	271,032	-0,287588	22,300000	51,365000
1,444145	-501,113096	271,183	-0,287370	22,300000	51,365000
1,441111	-505,030917	271,333	-0,289023	22,300000	51,365000
1,438142	-506,826681	271,483	-0,289781	22,300000	51,365000
1,435090	-505,917228	271,634	-0,289397	22,300000	51,365000
1,432175	-507,774317	271,784	-0,290181	22,300000	51,365000
1,429210	-510,236550	271,934	-0,291220	22,300000	51,365000
1,426136	-510,885664	272,084	-0,291494	22,300000	51,365000
1,423166	-514,922662	272,235	-0,293198	22,300000	51,365000
1,420081	-514,413553	272,386	-0,292983	22,300000	51,365000
1,417115	-518,128888	272,536	-0,294551	22,300000	51,365000
1,414098	-517,376796	272,687	-0,294233	22,300000	51,365000
1,411131	-520,448802	272,837	-0,295530	22,300000	51,365000
1,408116	-520,660545	272,987	-0,295619	22,300000	51,375000
1,405133	-522,540775	273,137	-0,296413	22,300000	51,375000
1,402099	-526,185528	273,287	-0,297951	22,300000	51,375000
1,399116	-527,165562	273,437	-0,298364	22,300000	51,375000
1,396144	-529,524817	273,588	-0,299360	22,300000	51,375000
1,393165	-530,278066	273,738	-0,299678	22,300000	51,375000
1,390128	-532,503101	273,888	-0,300617	22,300000	51,375000
1,387140	-533,138329	274,038	-0,300885	22,300000	51,375000
1,384111	-535,686186	274,188	-0,301960	22,300000	51,375000
1,381110	-535,999750	274,339	-0,302092	22,300000	51,375000
1,378121	-539,189777	274,489	-0,303438	22,300000	51,375000
1,375110	-537,770059	274,639	-0,302839	22,300000	51,375000
1,372097	-539,823848	274,790	-0,303706	22,300000	51,375000
1,369079	-541,595314	274,941	-0,304454	22,310000	51,430000
1,366129	-545,052623	275,091	-0,305913	22,310000	51,430000
1,363143	-545,107005	275,241	-0,305936	22,310000	51,430000
1,360076	-548,579356	275,391	-0,307401	22,310000	51,430000
1,357121	-547,779824	275,541	-0,307063	22,310000	51,430000
1,354170	-551,079773	275,691	-0,308456	22,310000	51,430000
1,351126	-551,549541	275,841	-0,308654	22,310000	51,430000
1,348103	-553,023641	275,991	-0,309276	22,310000	51,430000
1,345123	-555,029991	276,141	-0,310123	22,310000	51,430000
1,342110	-558,587965	276,292	-0,311625	22,310000	51,430000
1,339124	-557,860171	276,443	-0,311317	22,310000	51,430000
1,336106	-560,900937	276,593	-0,312601	22,310000	51,430000
1,333103	-563,235893	276,744	-0,313586	22,310000	51,430000
1,330147	-563,604997	276,895	-0,313742	22,310000	51,430000
1,327157	-566,292858	277,046	-0,314876	22,310000	51,430000
1,324134	-567,343472	277,196	-0,315319	22,310000	51,430000
1,321165	-567,256692	277,347	-0,315283	22,310000	51,430000
1,318160	-569,686528	277,497	-0,316308	22,310000	51,430000
1,315123	-572,595388	277,647	-0,317536	22,310000	51,430000
1,312179	-571,818998	277,797	-0,317208	22,310000	51,430000
1,309158	-573,684186	277,947	-0,317995	22,310000	51,430000
1,306102	-575,298291	278,097	-0,318676	22,310000	51,430000
1,303117	-576,851072	278,247	-0,319332	22,310000	51,430000
1,300140	-579,530833	278,397	-0,320462	22,310000	51,430000
1,297111	-579,750676	278,547	-0,320555	22,310000	51,430000
1,294068	-583,270466	278,697	-0,322041	22,310000	51,430000
1,291130	-582,728960	278,848	-0,321812	22,310000	51,430000
1,288158	-585,025733	278,998	-0,322781	22,310000	51,390000
1,285178	-588,247001	279,148	-0,324141	22,310000	51,390000
1,282086	-588,105839	279,298	-0,324081	22,310000	51,390000
1,279148	-591,264625	279,449	-0,325414	22,310000	51,390000
1,276075	-592,816249	279,599	-0,326069	22,310000	51,390000
1,273114	-594,062407	279,749	-0,326595	22,310000	51,390000
1,270053	-595,278482	279,899	-0,327108	22,310000	51,390000
1,267182	-594,502092	280,049	-0,326780	22,310000	51,390000
1,264084	-595,928753	280,199	-0,327382	22,310000	51,390000
1,261188	-599,063241	280,349	-0,328705	22,310000	51,390000
1,258170	-598,491651	280,499	-0,328464	22,310000	51,390000
1,255143	-601,391254	280,649	-0,329688	22,310000	51,390000
1,252150	-602,865355	280,800	-0,330310	22,310000	51,390000
1,249135	-603,978451	280,950	-0,330779	22,310000	51,390000
1,246179	-603,868530	281,100	-0,330733	22,310000	51,390000
1,243161	-605,090390	281,250	-0,331249	22,310000	51,390000
1,240165	-606,454569	281,400	-0,331824	22,310000	51,390000
1,237115	-609,668894	281,551	-0,333181	22,310000	51,390000
1,234169	-611,181178	281,702	-0,333819	22,310000	51,390000
1,231151	-612,239892	281,852	-0,334266	22,310000	51,390000
1,228101	-611,753925	282,002	-0,334061	22,310000	51,390000
1,225092	-613,234967	282,152	-0,334686	22,310000	51,390000
1,222124	-617,365688	282,303	-0,336429	22,310000	51,390000
1,219090	-616,197053	282,453	-0,335936	22,310000	51,390000
1,216131	-619,692545	282,605	-0,337411	22,310000	51,390000
1,213196	-619,277159	282,755	-0,337235	22,310000	51,390000
1,210114	-622,805049	282,906	-0,338724	22,310000	51,390000
1,207167	-622,138579	283,056	-0,338443	22,310000	51,405000
1,204128	-625,266125	283,207	-0,339763	22,310000	51,405000
1,201158	-625,031241	283,358	-0,339664	22,310000	51,405000
1,198143	-628,213168	283,508	-0,341006	22,310000	51,405000
1,195108	-630,070257	283,658	-0,341790	22,310000	51,405000
1,192145	-631,027149	283,808	-0,342194	22,310000	51,405000
1,189120	-630,070257	283,958	-0,341790	22,310000	51,405000
1,186153	-631,473776	284,108	-0,342382	22,310000	51,405000
1,183171	-632,633155	284,258	-0,342872	22,310000	51,405000
1,180158	-633,902455	284,408	-0,343407	22,310000	51,405000
1,177154	-635,588298	284,559	-0,344119	22,310000	51,405000
1,174130	-639,288590	284,710	-0,345680	22,310000	51,405000
1,171124	-638,237976	284,860	-0,345237	22,310000	51,405000
1,168128	-639,382313	285,010	-0,345720	22,310000	51,405000
1,165128	-640,761534	285,160	-0,346302	22,310000	51,405000
1,162148	-643,371871	285,310	-0,347403	22,310000	51,405000
1,159129	-642,940286	285,460	-0,347221	22,310000	51,405000
1,156085	-645,213918	285,610	-0,348181	22,310000	51,405000
1,153125	-645,542524	285,760	-0,348319	22,310000	51,405000
1,150136	-646,358255	285,910	-0,348664	22,310000	51,405000
1,147073	-650,009951	286,060	-0,350205	22,310000	51,405000
1,144141	-649,712585	286,210	-0,350079	22,310000	51,405000
1,141137	-650,441536	286,360	-0,350387	22,310000	51,405000
1,138093	-652,910712	286,511	-0,351429	22,310000	51,405000
1,135131	-652,424745	286,661	-0,351224	22,310000	51,405000
1,132090	-654,775900	286,811	-0,352216	22,310000	51,405000
1,129167	-658,005267	286,961	-0,353579	22,300000	51,390000
1,126139	-659,486310	287,111	-0,354204	22,300000	51,390000
1,123138	-658,757359	287,262	-0,353896	22,300000	51,390000
1,120151	-660,160878	287,413	-0,354488	22,300000	51,390000
1,117100	-663,436528	287,563	-0,355871	22,300000	51,390000
1,114101	-662,911221	287,714	-0,355649	22,300000	51,390000
1,111045	-664,314740	287,864	-0,356241	22,300000	51,390000
1,108101	-665,349156	288,014	-0,356678	22,300000	51,390000
1,105179	-668,389922	288,164	-0,357961	22,300000	51,390000
1,102111	-669,220694	288,314	-0,358312	22,300000	51,390000
1,099102	-671,031500	288,464	-0,359076	22,300000	51,390000
1,096158	-669,448636	288,614	-0,358408	22,300000	51,390000
1,093138	-670,765375	288,765	-0,358963	22,300000	51,390000
1,090116	-673,822340	288,915	-0,360253	22,300000	51,390000
1,087126	-673,101488	289,066	-0,359949	22,300000	51,390000
1,084067	-676,017291	289,216	-0,361180	22,300000	51,390000
1,081065	-676,353997	289,366	-0,361322	22,300000	51,390000
1,078098	-677,843139	289,517	-0,361950	22,300000	51,390000
1,075158	-677,357172	289,667	-0,361745	22,300000	51,390000
1,072144	-680,249833	289,818	-0,362966	22,300000	51,390000
1,069180	-680,594639	289,968	-0,363111	22,300000	51,390000
1,066083	-680,013792	290,118	-0,362866	22,300000	51,390000
1,063099	-681,487892	290,270	-0,363488	22,300000	51,390000
1,060109	-684,316915	290,420	-0,364682	22,300000	51,390000
1,057109	-683,338039	290,570	-0,364269	22,300000	51,390000
1,054182	-684,129471	290,721	-0,364603	22,300000	51,390000
1,051173	-684,983385	290,872	-0,364963	22,300000	51,390000
1,048138	-685,523734	291,022	-0,365191	22,310000	51,375000
1,045150	-685,955319	291,172	-0,365374	22,310000	51,375000
1,042159	-688,439536	291,323	-0,366422	22,310000	51,375000
1,039078	-687,703643	291,474	-0,366111	22,310000	51,375000
1,036150	-690,391504	291,624	-0,367246	22,310000	51,375000
1,033094	-689,521392	291,775	-0,366878	22,310000	51,375000
1,030135	-690,501426	291,926	-0,367292	22,310000	51,375000
1,027110	-691,245418	292,076	-0,367606	22,310000	51,375000
1,024108	-692,633896	292,227	-0,368192	22,310000	51,375000
1,021103	-693,134904	292,378	-0,368403	22,310000	51,375000
1,018169	-694,993150	292,528	-0,369188	22,310000	51,375000
1,015112	-696,763459	292,678	-0,369935	22,310000	51,375000
1,012108	-696,308733	292,828	-0,369743	22,310000	51,375000
1,009177	-698,879730	292,979	-0,370828	22,300000	51,415000
1,006134	-697,524807	293,130	-0,370256	22,300000	51,415000
1,003197	-698,347480	293,280	-0,370603	22,300000	51,415000
1,000112	-700,416312	293,430	-0,371476	22,300000	51,415000
0,997106	-698,848489	293,580	-0,370814	22,300000	51,415000
0,994152	-700,580615	293,731	-0,371545	22,300000	51,415000
0,991128	-699,616780	293,881	-0,371139	22,300000	51,415000
0,988093	-699,467519	294,032	-0,371076	22,300000	51,415000
0,985180	-700,933520	294,182	-0,371694	22,300000	51,415000
0,982152	-698,872788	294,332	-0,370825	22,300000	51,415000
0,979186	-699,138913	294,482	-0,370937	22,300000	51,415000
0,976105	-701,568748	294,632	-0,371962	22,300000	51,415000
0,973135	-701,396346	294,783	-0,371890	22,300000	51,415000
0,970180	-700,298291	294,934	-0,371426	22,300000	51,415000
0,967088	-700,471851	295,084	-0,371500	22,300000	51,415000
0,964107	-700,447553	295,235	-0,371489	22,300000	51,415000
0,961091	-700,291349	295,386	-0,371423	22,300000	51,415000
0,958085	-701,583790	295,536	-0,371969	22,300000	51,415000
0,955158	-702,148437	295,686	-0,372207	22,300000	51,415000
0,952092	-702,517541	295,836	-0,372363	22,300000	51,415000
0,949090	-700,925420	295,987	-0,371691	22,300000	51,415000
0,946102	-701,529408	296,138	-0,371946	22,300000	51,415000
0,943143	-703,340214	296,288	-0,372710	22,300000	51,415000
0,940106	-704,108505	296,438	-0,373034	22,300000	51,415000
0,937150	-701,560649	296,589	-0,371959	22,300000	51,415000
0,934158	-703,731302	296,740	-0,372875	22,300000	51,415000
0,931160	-701,976035	296,890	-0,372134	22,300000	51,415000
0,928193	-702,736226	297,040	-0,372455	22,300000	51,390000
0,925114	-703,034749	297,191	-0,372581	22,300000	51,390000
0,922158	-700,925420	297,341	-0,371691	22,300000	51,390000
0,919102	-700,094648	297,491	-0,371340	22,300000	51,390000
0,916177	-700,158286	297,641	-0,371367	22,300000	51,390000
0,913154	-702,289599	297,791	-0,372267	22,300000	51,390000
0,910172	-701,936695	297,941	-0,372118	22,300000	51,390000
0,907141	-699,757942	298,092	-0,371198	22,300000	51,390000
0,904130	-697,657870	298,242	-0,370312	22,300000	51,390000
0,901120	-693,276066	298,393	-0,368463	22,300000	51,390000
0,898107	-690,054799	298,543	-0,367104	22,300000	51,390000
0,895117	-685,907879	298,694	-0,365354	22,300000	51,390000
0,892102	-681,738975	298,845	-0,363594	22,300000	51,390000
0,889123	-679,041858	298,995	-0,362456	22,310000	51,375000
0,886103	-671,682927	299,145	-0,359351	22,310000	51,375000
0,883095	-662,817499	299,296	-0,355609	22,310000	51,375000
0,880142	-649,164137	299,447	-0,349848	22,310000	51,375000
0,877105	-588,826690	299,598	-0,324385	22,310000	51,375000
0,874164	-0,509108	299,748	-0,076115	22,310000	51,375000
0,871112	-0,509108	299,898	-0,076115	22,310000	51,375000
0,868089	-0,532250	300,048	-0,076125	22,310000	51,375000
0,865156	-0,399187	300,199	-0,076069	22,310000	51,375000
0,862157	-0,030084	300,349	-0,075913	22,310000	51,375000
0,859108	-0,015042	300,500	-0,075907	22,310000	51,375000
0,856126	-0,289266	300,650	-0,076022	22,310000	51,375000
0,853181	-0,241826	300,800	-0,076002	22,310000	51,375000
0,850264	-0,211743	300,951	-0,075990	22,300000	51,390000
0,847151	-0,258025	301,102	-0,076009	22,300000	51,390000
0,844143	-0,289266	301,252	-0,076022	22,300000	51,390000
0,841127	-0,179345	301,402	-0,075976	22,300000	51,390000
0,838084	-0,156204	301,552	-0,075966	22,300000	51,390000
0,835117	-0,140005	301,702	-0,075959	22,300000	51,390000
0,832166	0,008099	301,852	-0,075897	22,300000	51,390000
0,829118	-0,101822	302,002	-0,075943	22,300000	51,390000
0,826118	-0,023141	302,153	-0,075910	22,300000	51,390000
0,823112	0,016199	302,303	-0,075894	22,300000	51,390000
0,820071	-0,101822	302,454	-0,075943	22,300000	51,390000
0,817042	-0,023141	302,604	-0,075910	22,300000	51,390000
0,814131	0,039340	302,754	-0,075884	22,300000	51,390000
0,811076	-0,046283	302,905	-0,075920	22,300000	51,390000
0,808152	-0,077523	303,056	-0,075933	22,310000	51,415000
0,805132	-0,093722	303,206	-0,075940	22,310000	51,415000
0,802095	0,008099	303,357	-0,075897	22,310000	51,415000
0,799118	-0,038183	303,507	-0,075917	22,310000	51,415000
0,796137	-0,187444	303,657	-0,075979	22,310000	51,415000
0,793145	-0,359847	303,807	-0,076052	22,310000	51,415000
0,790169	0,078680	303,957	-0,075867	22,310000	51,415000
0,787147	-0,023141	304,108	-0,075910	22,310000	51,415000
0,784144	0,219842	304,259	-0,075808	22,310000	51,415000
0,781082	0,118021	304,409	-0,075851	22,310000	51,415000
0,778160	-0,015042	304,559	-0,075907	22,310000	51,415000
0,775103	-0,030084	304,710	-0,075913	22,310000	51,415000
0,772107	0,275381	304,860	-0,075784	22,310000	51,415000
0,769092	-0,046283	305,011	-0,075920	22,310000	51,415000
0,766144	0,259182	305,161	-0,075791	22,310000	51,415000
0,763126	0,070581	305,311	-0,075871	22,310000	51,415000
0,760092	-0,006942	305,461	-0,075903	22,310000	51,415000
0,757058	0,039340	305,611	-0,075884	22,310000	51,415000
0,754083	-0,023141	305,761	-0,075910	22,310000	51,415000
0,751141	0,102979	305,911	-0,075857	22,310000	51,415000
0,748114	-0,164303	306,061	-0,075970	22,310000	51,415000
0,745109	0,008099	306,211	-0,075897	22,310000	51,415000
0,742146	0,039340	306,361	-0,075884	22,310000	51,415000
0,739125	-0,085623	306,511	-0,075937	22,310000	51,415000
0,736129	0,298523	306,661	-0,075774	22,310000	51,415000
0,733160	0,385303	306,811	-0,075738	22,310000	51,415000
0,730135	0,047440	306,962	-0,075880	22,310000	51,390000
0,727170	0,094879	307,112	-0,075860	22,310000	51,390000
0,724101	-0,101822	307,262	-0,075943	22,310000	51,390000
0,721126	0,188602	307,412	-0,075821	22,310000	51,390000
0,718109	-0,140005	307,562	-0,075959	22,310000	51,390000
0,715193	0,086780	307,712	-0,075864	22,310000	51,390000
0,712088	0,000000	307,862	-0,075900	22,310000	51,390000
0,709136	0,352905	308,012	-0,075751	22,310000	51,390000
0,706101	0,134219	308,163	-0,075844	22,310000	51,390000
0,703094	0,251083	308,313	-0,075794	22,310000	51,390000
0,700137	0,236041	308,464	-0,075801	22,310000	51,390000
0,697104	0,047440	308,615	-0,075880	22,310000	51,390000
0,694192	-0,116864	308,765	-0,075950	22,310000	51,390000
0,691198	0,298523	308,916	-0,075774	22,310000	51,390000
0,688072	0,063639	309,066	-0,075874	22,310000	51,390000
0,685113	0,126120	309,216	-0,075847	22,310000	51,390000
0,682096	0,165460	309,366	-0,075831	22,310000	51,390000
0,679142	0,369104	309,516	-0,075745	22,310000	51,390000
0,676124	-0,266125	309,666	-0,076013	22,310000	51,390000
0,673123	0,070581	309,816	-0,075871	22,310000	51,390000
0,670146	0,203643	309,966	-0,075814	22,310000	51,390000
0,667139	0,196701	310,116	-0,075817	22,310000	51,390000
0,664150	0,109921	310,267	-0,075854	22,310000	51,390000
0,661146	0,282324	310,417	-0,075781	22,310000	51,390000
0,658069	0,188602	310,567	-0,075821	22,310000	51,390000
0,655142	0,180502	310,717	-0,075824	22,310000	51,390000
0,652102	0,227942	310,867	-0,075804	22,310000	51,390000
