Quasi static measurement routine
Tip parameters (shape,radius, material...) 
12.08.2022

Piezo position[nm]	MEMS displ.[nm]	Time[ms]	Cap [pf]	Temp [°C]	Rh [%]
eoh
2,050070	-0,195552	0,181	-0,106400	22,350000	47,360000
2,050802	0,389905	0,232	-0,106162	22,350000	47,360000
2,051495	-0,325121	0,282	-0,106453	22,350000	47,360000
2,052220	0,325121	0,332	-0,106188	22,350000	47,360000
2,052893	0,129568	0,382	-0,106268	22,350000	47,360000
2,053626	-0,195552	0,432	-0,106400	22,350000	47,360000
2,054317	0,260337	0,482	-0,106214	22,350000	47,360000
2,055015	-0,064784	0,533	-0,106347	22,350000	47,360000
2,055718	0,194353	0,583	-0,106241	22,350000	47,360000
2,056381	-0,389905	0,634	-0,106479	22,350000	47,360000
2,057109	-0,195552	0,684	-0,106400	22,350000	47,360000
2,057773	0,260337	0,735	-0,106214	22,350000	47,360000
2,058503	0,129568	0,785	-0,106268	22,350000	47,360000
2,059114	0,389905	0,836	-0,106162	22,350000	47,360000
2,059897	-0,195552	0,886	-0,106400	22,350000	47,360000
2,060565	0,194353	0,937	-0,106241	22,350000	47,360000
2,061343	0,194353	0,987	-0,106241	22,350000	47,360000
2,062015	-0,195552	1,037	-0,106400	22,350000	47,360000
2,062747	-0,064784	1,087	-0,106347	22,350000	47,360000
2,063375	0,194353	1,137	-0,106241	22,350000	47,360000
2,064125	-0,260337	1,187	-0,106426	22,350000	47,360000
2,064704	-0,650242	1,238	-0,106585	22,350000	47,360000
2,065457	0,064784	1,288	-0,106294	22,350000	47,360000
2,066184	-0,520673	1,338	-0,106532	22,350000	47,360000
2,066915	0,325121	1,388	-0,106188	22,350000	47,360000
2,067611	-0,389905	1,439	-0,106479	22,340000	47,335000
2,068337	0,000000	1,489	-0,106320	22,340000	47,335000
2,068990	-0,129568	1,540	-0,106373	22,340000	47,335000
2,069663	-0,325121	1,590	-0,106453	22,340000	47,335000
2,070443	0,000000	1,640	-0,106320	22,340000	47,335000
2,071050	0,000000	1,691	-0,106320	22,340000	47,335000
2,071739	-0,650242	1,741	-0,106585	22,340000	47,335000
2,072506	-0,779810	1,791	-0,106638	22,340000	47,335000
2,073173	0,129568	1,841	-0,106268	22,340000	47,335000
2,073872	-0,260337	1,891	-0,106426	22,340000	47,335000
2,074578	0,260337	1,942	-0,106214	22,340000	47,335000
2,075334	0,000000	1,999	-0,106320	22,340000	47,335000
2,075980	0,064784	2,052	-0,106294	22,340000	47,335000
2,076687	-0,195552	2,103	-0,106400	22,340000	47,335000
2,077408	0,129568	2,153	-0,106268	22,340000	47,335000
2,078128	0,129568	2,203	-0,106268	22,340000	47,335000
2,078763	-0,129568	2,253	-0,106373	22,340000	47,335000
2,079492	-0,779810	2,309	-0,106638	22,340000	47,335000
2,080211	-0,064784	2,359	-0,106347	22,340000	47,335000
2,080866	0,000000	2,409	-0,106320	22,340000	47,335000
2,081594	0,194353	2,460	-0,106241	22,340000	47,335000
2,082290	-0,064784	2,510	-0,106347	22,340000	47,335000
2,082966	-0,455889	2,560	-0,106506	22,340000	47,335000
2,083715	-0,325121	2,610	-0,106453	22,340000	47,335000
2,084390	-0,455889	2,660	-0,106506	22,340000	47,335000
2,085071	0,129568	2,710	-0,106268	22,340000	47,335000
2,085726	-0,260337	2,760	-0,106426	22,340000	47,335000
2,086456	-0,650242	2,810	-0,106585	22,340000	47,335000
2,087169	-0,064784	2,860	-0,106347	22,340000	47,335000
2,087855	-0,585458	2,910	-0,106559	22,340000	47,335000
2,088594	-0,455889	2,960	-0,106506	22,340000	47,335000
2,089247	-0,520673	3,010	-0,106532	22,340000	47,335000
2,090020	-0,520673	3,060	-0,106532	22,340000	47,335000
2,090689	0,260337	3,110	-0,106214	22,340000	47,335000
2,091424	0,325121	3,160	-0,106188	22,340000	47,335000
2,092086	0,129568	3,210	-0,106268	22,340000	47,335000
2,092800	0,260337	3,261	-0,106214	22,340000	47,335000
2,093482	0,389905	3,311	-0,106162	22,340000	47,335000
2,094195	0,194353	3,362	-0,106241	22,340000	47,335000
2,094826	-0,520673	3,413	-0,106532	22,340000	47,335000
2,095618	-0,455889	3,464	-0,106506	22,340000	47,335000
2,096328	-0,064784	3,514	-0,106347	22,340000	47,335000
2,096983	-0,195552	3,566	-0,106400	22,340000	47,335000
2,097662	-0,129568	3,616	-0,106373	22,340000	47,335000
2,098352	-0,325121	3,666	-0,106453	22,340000	47,335000
2,099085	0,129568	3,716	-0,106268	22,340000	47,335000
2,099793	-0,389905	3,767	-0,106479	22,340000	47,335000
2,100513	0,129568	3,817	-0,106268	22,340000	47,335000
2,101170	0,129568	3,868	-0,106268	22,340000	47,335000
2,101900	0,129568	3,919	-0,106268	22,340000	47,335000
2,102594	0,389905	3,969	-0,106162	22,340000	47,335000
2,103298	0,129568	4,019	-0,106268	22,340000	47,335000
2,104012	-0,260337	4,069	-0,106426	22,340000	47,335000
2,104670	0,129568	4,119	-0,106268	22,340000	47,335000
2,105384	-0,325121	4,169	-0,106453	22,340000	47,335000
2,106056	0,194353	4,219	-0,106241	22,340000	47,335000
2,106819	0,000000	4,269	-0,106320	22,340000	47,335000
2,107485	0,454689	4,319	-0,106135	22,340000	47,335000
2,108219	0,129568	4,369	-0,106268	22,340000	47,335000
2,108919	-0,389905	4,419	-0,106479	22,340000	47,335000
2,109592	0,194353	4,469	-0,106241	22,340000	47,335000
2,110272	0,064784	4,519	-0,106294	22,340000	47,335000
2,111018	-0,455889	4,570	-0,106506	22,340000	47,335000
2,111720	-0,779810	4,621	-0,106638	22,340000	47,335000
2,112370	0,584258	4,671	-0,106083	22,340000	47,335000
2,113054	-0,260337	4,721	-0,106426	22,340000	47,335000
2,113748	0,194353	4,772	-0,106241	22,340000	47,335000
2,114455	-0,389905	4,822	-0,106479	22,340000	47,335000
2,115206	-0,389905	4,872	-0,106479	22,340000	47,335000
2,115857	-0,260337	4,923	-0,106426	22,340000	47,335000
2,116565	-0,064784	4,973	-0,106347	22,340000	47,335000
2,117313	-0,650242	5,023	-0,106585	22,340000	47,335000
2,117975	-0,064784	5,074	-0,106347	22,340000	47,335000
2,118661	-0,585458	5,125	-0,106559	22,340000	47,335000
2,119362	0,194353	5,176	-0,106241	22,340000	47,335000
2,120096	0,064784	5,226	-0,106294	22,340000	47,335000
2,120779	0,129568	5,276	-0,106268	22,340000	47,335000
2,121463	0,064784	5,326	-0,106294	22,340000	47,335000
2,122156	-0,064784	5,376	-0,106347	22,340000	47,335000
2,122890	0,260337	5,426	-0,106214	22,350000	47,335000
2,123583	-0,715026	5,476	-0,106611	22,350000	47,335000
2,124328	-0,064784	5,527	-0,106347	22,350000	47,335000
2,124977	-0,455889	5,577	-0,106506	22,350000	47,335000
2,125664	-0,129568	5,628	-0,106373	22,350000	47,335000
2,126367	0,194353	5,679	-0,106241	22,350000	47,335000
2,127087	-0,389905	5,729	-0,106479	22,350000	47,335000
2,127819	0,194353	5,779	-0,106241	22,350000	47,335000
2,128511	0,454689	5,829	-0,106135	22,350000	47,335000
2,129134	-0,129568	5,880	-0,106373	22,350000	47,335000
2,129927	-0,779810	5,930	-0,106638	22,350000	47,335000
2,130575	-0,389905	5,980	-0,106479	22,350000	47,335000
2,131285	0,194353	6,030	-0,106241	22,350000	47,335000
2,131971	0,129568	6,080	-0,106268	22,350000	47,335000
2,132676	-0,195552	6,130	-0,106400	22,350000	47,335000
2,133377	0,129568	6,180	-0,106268	22,350000	47,335000
2,134116	-0,650242	6,231	-0,106585	22,350000	47,335000
2,134789	0,389905	6,281	-0,106162	22,350000	47,335000
2,135490	0,454689	6,331	-0,106135	22,350000	47,335000
2,136204	0,000000	6,381	-0,106320	22,350000	47,335000
2,136943	-0,845794	6,431	-0,106665	22,350000	47,335000
2,137607	-0,195552	6,481	-0,106400	22,350000	47,335000
2,138324	0,194353	6,531	-0,106241	22,350000	47,335000
2,138937	0,064784	6,581	-0,106294	22,350000	47,335000
2,139733	0,064784	6,631	-0,106294	22,350000	47,335000
2,140397	0,325121	6,681	-0,106188	22,350000	47,335000
2,141112	0,129568	6,731	-0,106268	22,350000	47,335000
2,141765	-0,129568	6,781	-0,106373	22,350000	47,335000
2,142469	0,129568	6,831	-0,106268	22,350000	47,335000
2,143197	-0,195552	6,881	-0,106400	22,350000	47,335000
2,143899	-0,195552	6,931	-0,106400	22,350000	47,335000
2,144562	0,129568	6,981	-0,106268	22,350000	47,335000
2,145303	-0,129568	7,031	-0,106373	22,350000	47,335000
2,145967	-0,325121	7,082	-0,106453	22,350000	47,335000
2,146663	0,064784	7,132	-0,106294	22,350000	47,335000
2,147387	0,064784	7,182	-0,106294	22,350000	47,335000
2,148112	-0,455889	7,232	-0,106506	22,350000	47,335000
2,148788	-0,064784	7,282	-0,106347	22,350000	47,335000
2,149501	-0,520673	7,332	-0,106532	22,350000	47,335000
2,150229	-0,064784	7,383	-0,106347	22,350000	47,335000
2,150910	-0,064784	7,433	-0,106347	22,350000	47,335000
2,151573	0,064784	7,483	-0,106294	22,350000	47,335000
2,152280	0,129568	7,533	-0,106268	22,350000	47,335000
2,153018	0,520673	7,583	-0,106108	22,350000	47,335000
2,153753	0,260337	7,633	-0,106214	22,350000	47,335000
2,154468	-0,260337	7,684	-0,106426	22,350000	47,335000
2,155039	-0,325121	7,734	-0,106453	22,350000	47,335000
2,155754	0,064784	7,785	-0,106294	22,350000	47,335000
2,156447	0,194353	7,835	-0,106241	22,350000	47,335000
2,157217	0,064784	7,885	-0,106294	22,350000	47,335000
2,157897	0,260337	7,935	-0,106214	22,350000	47,335000
2,158559	-0,455889	7,986	-0,106506	22,350000	47,335000
2,159276	0,000000	8,036	-0,106320	22,350000	47,335000
2,159993	0,129568	8,087	-0,106268	22,350000	47,335000
2,160734	-0,650242	8,138	-0,106585	22,350000	47,335000
2,161398	-0,260337	8,188	-0,106426	22,350000	47,335000
2,162061	-0,129568	8,238	-0,106373	22,350000	47,335000
2,162770	-0,260337	8,288	-0,106426	22,350000	47,335000
2,163461	0,064784	8,339	-0,106294	22,350000	47,335000
2,164182	-0,779810	8,389	-0,106638	22,350000	47,335000
2,164910	-0,129568	8,439	-0,106373	22,350000	47,335000
2,165591	-0,325121	8,490	-0,106453	22,350000	47,335000
2,166266	-0,195552	8,540	-0,106400	22,350000	47,335000
2,166952	0,129568	8,590	-0,106268	22,350000	47,335000
2,167690	-0,455889	8,640	-0,106506	22,350000	47,335000
2,168395	-0,195552	8,690	-0,106400	22,350000	47,335000
2,169093	-0,455889	8,740	-0,106506	22,350000	47,335000
2,169790	0,194353	8,790	-0,106241	22,350000	47,335000
2,170456	-0,520673	8,840	-0,106532	22,350000	47,335000
2,171169	-0,064784	8,890	-0,106347	22,350000	47,335000
2,171872	-0,064784	8,941	-0,106347	22,350000	47,335000
2,172571	-0,129568	8,991	-0,106373	22,350000	47,335000
2,173303	-0,520673	9,041	-0,106532	22,350000	47,335000
2,174002	0,129568	9,091	-0,106268	22,350000	47,335000
2,174672	0,520673	9,142	-0,106108	22,350000	47,335000
2,175378	0,389905	9,192	-0,106162	22,350000	47,335000
2,176106	0,064784	9,243	-0,106294	22,350000	47,335000
2,176804	0,194353	9,293	-0,106241	22,350000	47,335000
2,177467	0,454689	9,344	-0,106135	22,350000	47,335000
2,178170	-0,260337	9,394	-0,106426	22,350000	47,335000
2,178885	-0,325121	9,444	-0,106453	22,350000	47,350000
2,179578	-0,585458	9,494	-0,106559	22,350000	47,350000
2,180300	0,194353	9,544	-0,106241	22,350000	47,350000
2,180958	-0,650242	9,594	-0,106585	22,350000	47,350000
2,181697	-0,389905	9,645	-0,106479	22,350000	47,350000
2,182434	0,389905	9,695	-0,106162	22,350000	47,350000
2,183094	-0,260337	9,745	-0,106426	22,350000	47,350000
2,183768	-0,325121	9,795	-0,106453	22,350000	47,350000
2,184457	-0,325121	9,846	-0,106453	22,350000	47,350000
2,185157	0,064784	9,897	-0,106294	22,350000	47,350000
2,185856	-0,389905	9,948	-0,106479	22,350000	47,350000
2,186543	0,000000	9,999	-0,106320	22,350000	47,350000
2,187267	-0,715026	10,049	-0,106611	22,350000	47,350000
2,188055	-0,520673	10,100	-0,106532	22,350000	47,350000
2,188699	0,129568	10,150	-0,106268	22,350000	47,350000
2,189392	0,584258	10,201	-0,106083	22,350000	47,350000
2,190106	-0,064784	10,251	-0,106347	22,350000	47,350000
2,190777	-0,064784	10,301	-0,106347	22,350000	47,350000
2,191499	0,389905	10,352	-0,106162	22,350000	47,350000
2,192199	-0,325121	10,402	-0,106453	22,350000	47,350000
2,192869	0,129568	10,453	-0,106268	22,350000	47,350000
2,193547	-0,585458	10,505	-0,106559	22,350000	47,350000
2,194259	-0,195552	10,555	-0,106400	22,350000	47,350000
2,195017	-0,975363	10,605	-0,106717	22,350000	47,350000
2,195676	-0,585458	10,656	-0,106559	22,350000	47,350000
2,196315	0,454689	10,707	-0,106135	22,350000	47,350000
2,197076	-0,520673	10,757	-0,106532	22,350000	47,350000
2,197756	-0,585458	10,807	-0,106559	22,350000	47,350000
2,198547	-0,195552	10,857	-0,106400	22,350000	47,350000
2,199164	0,064784	10,907	-0,106294	22,350000	47,350000
2,199892	-0,129568	10,957	-0,106373	22,350000	47,350000
2,200620	0,194353	11,007	-0,106241	22,350000	47,350000
2,201310	-0,715026	11,058	-0,106611	22,350000	47,350000
2,201973	-0,520673	11,108	-0,106532	22,350000	47,350000
2,202672	0,260337	11,159	-0,106214	22,350000	47,350000
2,203380	-0,195552	11,211	-0,106400	22,350000	47,350000
2,204048	0,129568	11,261	-0,106268	22,350000	47,350000
2,204831	-0,129568	11,311	-0,106373	22,350000	47,350000
2,205517	-0,260337	11,361	-0,106426	22,350000	47,350000
2,206188	0,325121	11,411	-0,106188	22,350000	47,350000
2,206922	-0,064784	11,461	-0,106347	22,350000	47,350000
2,207590	0,000000	11,511	-0,106320	22,350000	47,350000
2,208289	0,194353	11,562	-0,106241	22,350000	47,350000
2,209026	-0,129568	11,612	-0,106373	22,350000	47,350000
2,209755	0,064784	11,662	-0,106294	22,350000	47,350000
2,210414	-0,195552	11,712	-0,106400	22,350000	47,350000
2,211110	0,064784	11,762	-0,106294	22,350000	47,350000
2,211772	0,064784	11,812	-0,106294	22,350000	47,350000
2,212559	0,454689	11,862	-0,106135	22,350000	47,350000
2,213190	-0,325121	11,912	-0,106453	22,350000	47,350000
2,213863	0,000000	11,962	-0,106320	22,350000	47,350000
2,214601	0,194353	12,012	-0,106241	22,350000	47,350000
2,215297	0,000000	12,062	-0,106320	22,350000	47,350000
2,215974	0,129568	12,112	-0,106268	22,350000	47,350000
2,216688	0,194353	12,162	-0,106241	22,350000	47,350000
2,217384	-0,520673	12,212	-0,106532	22,350000	47,350000
2,218049	0,454689	12,263	-0,106135	22,350000	47,350000
2,218762	0,194353	12,313	-0,106241	22,350000	47,350000
2,219470	0,194353	12,363	-0,106241	22,350000	47,350000
2,220144	0,194353	12,413	-0,106241	22,350000	47,350000
2,220908	0,325121	12,464	-0,106188	22,350000	47,350000
2,221591	0,260337	12,515	-0,106214	22,350000	47,350000
2,222269	-0,389905	12,565	-0,106479	22,350000	47,350000
2,222946	0,129568	12,616	-0,106268	22,350000	47,350000
2,223724	-0,195552	12,667	-0,106400	22,350000	47,350000
2,224378	-0,195552	12,717	-0,106400	22,350000	47,350000
2,225065	-0,064784	12,767	-0,106347	22,350000	47,350000
2,225772	0,064784	12,817	-0,106294	22,350000	47,350000
2,226512	-3,770683	12,868	-0,107855	22,350000	47,350000
2,227191	-3,576330	12,920	-0,107776	22,350000	47,350000
2,227905	-3,835467	12,970	-0,107881	22,350000	47,350000
2,228554	-3,055657	13,020	-0,107564	22,350000	47,350000
2,229321	-3,120441	13,070	-0,107590	22,350000	47,350000
2,229981	-2,861304	13,121	-0,107485	22,350000	47,350000
2,230664	-2,275847	13,171	-0,107247	22,350000	47,350000
2,231381	-1,950726	13,228	-0,107114	22,350000	47,350000
2,232064	-1,950726	13,278	-0,107114	22,350000	47,350000
2,232808	-1,625605	13,329	-0,106982	22,350000	47,350000
2,233527	-1,885941	13,379	-0,107088	22,350000	47,350000
2,234211	-2,015510	13,429	-0,107141	22,340000	47,350000
2,234876	-1,104931	13,479	-0,106770	22,340000	47,350000
2,235605	-1,690389	13,529	-0,107008	22,340000	47,350000
2,236251	-1,885941	13,579	-0,107088	22,340000	47,350000
2,236987	-1,300484	13,629	-0,106850	22,340000	47,350000
2,237718	-0,975363	13,680	-0,106717	22,340000	47,350000
2,238376	-0,585458	13,731	-0,106559	22,340000	47,350000
2,239071	-0,260337	13,781	-0,106426	22,340000	47,350000
2,239816	-0,455889	13,831	-0,106506	22,340000	47,350000
2,240468	0,129568	13,881	-0,106268	22,340000	47,350000
2,241157	0,325121	13,931	-0,106188	22,340000	47,350000
2,241881	0,129568	13,982	-0,106268	22,340000	47,350000
2,242540	0,520673	14,033	-0,106108	22,340000	47,350000
2,243260	0,260337	14,083	-0,106214	22,340000	47,350000
2,243980	0,910579	14,133	-0,105950	22,340000	47,350000
2,244696	1,365268	14,183	-0,105765	22,340000	47,350000
2,245460	1,169716	14,234	-0,105844	22,340000	47,350000
2,246100	0,779810	14,284	-0,106003	22,340000	47,350000
2,246784	1,040147	14,334	-0,105897	22,340000	47,350000
2,247488	1,625605	14,384	-0,105659	22,340000	47,350000
2,248235	1,625605	14,435	-0,105659	22,340000	47,350000
2,248867	1,884742	14,485	-0,105553	22,340000	47,350000
2,249552	2,534983	14,536	-0,105289	22,340000	47,350000
2,250294	2,665752	14,587	-0,105235	22,340000	47,350000
2,250973	2,599768	14,639	-0,105262	22,340000	47,350000
2,251658	2,145078	14,689	-0,105447	22,340000	47,350000
2,252439	2,405415	14,739	-0,105341	22,340000	47,350000
2,253122	3,055657	14,789	-0,105077	22,340000	47,350000
2,253816	3,576330	14,839	-0,104865	22,340000	47,350000
2,254512	3,510346	14,889	-0,104892	22,340000	47,350000
2,255161	3,576330	14,939	-0,104865	22,340000	47,350000
2,255886	4,290157	14,989	-0,104574	22,340000	47,350000
2,256596	4,095804	15,039	-0,104653	22,340000	47,350000
2,257289	4,810830	15,089	-0,104362	22,340000	47,350000
2,258005	4,810830	15,139	-0,104362	22,340000	47,350000
2,258684	4,746046	15,189	-0,104389	22,340000	47,350000
2,259363	4,356141	15,240	-0,104547	22,340000	47,350000
2,260026	5,200735	15,290	-0,104204	22,340000	47,350000
2,260845	5,525856	15,341	-0,104071	22,340000	47,350000
2,261550	5,331503	15,391	-0,104150	22,340000	47,350000
2,262187	5,591840	15,442	-0,104044	22,340000	47,320000
2,262920	6,761556	15,493	-0,103568	22,340000	47,320000
2,263576	6,240882	15,543	-0,103780	22,340000	47,320000
2,264236	6,176098	15,594	-0,103807	22,340000	47,320000
2,265016	6,955908	15,644	-0,103489	22,340000	47,320000
2,265749	6,111314	15,695	-0,103833	22,340000	47,320000
2,266355	6,891124	15,746	-0,103516	22,340000	47,320000
2,267051	7,151461	15,796	-0,103410	22,340000	47,320000
2,267745	6,955908	15,846	-0,103489	22,340000	47,320000
2,268462	7,736918	15,896	-0,103171	22,340000	47,320000
2,269252	7,606150	15,946	-0,103225	22,340000	47,320000
2,269868	7,931271	15,996	-0,103092	22,340000	47,320000
2,270620	8,126824	16,046	-0,103013	22,340000	47,320000
2,271260	8,971418	16,096	-0,102669	22,340000	47,320000
2,272003	8,841850	16,146	-0,102722	22,340000	47,320000
2,272751	8,711081	16,196	-0,102775	22,340000	47,320000
2,273352	9,556876	16,246	-0,102431	22,340000	47,320000
2,274050	10,336686	16,297	-0,102113	22,340000	47,320000
2,274778	9,621660	16,348	-0,102404	22,340000	47,320000
2,275454	10,077549	16,398	-0,102219	22,340000	47,320000
2,276184	10,336686	16,448	-0,102113	22,340000	47,320000
2,276863	10,467454	16,498	-0,102060	22,340000	47,320000
2,277604	10,532239	16,548	-0,102034	22,340000	47,320000
2,278276	11,182480	16,598	-0,101769	22,340000	47,320000
2,278978	10,661807	16,648	-0,101981	22,340000	47,320000
2,279665	11,376833	16,698	-0,101690	22,340000	47,320000
2,280387	11,962291	16,748	-0,101452	22,340000	47,320000
2,281135	11,572386	16,798	-0,101610	22,340000	47,320000
2,281784	11,766738	16,848	-0,101531	22,340000	47,320000
2,282505	12,352196	16,898	-0,101293	22,340000	47,320000
2,283142	13,262774	16,948	-0,100922	22,340000	47,320000
2,283929	12,872869	16,998	-0,101081	22,340000	47,320000
2,284615	13,067222	17,048	-0,101002	22,340000	47,320000
2,285269	13,587895	17,099	-0,100790	22,340000	47,320000
2,286023	13,262774	17,149	-0,100922	22,340000	47,320000
2,286657	13,458327	17,199	-0,100843	22,340000	47,320000
2,287415	14,628042	17,249	-0,100367	22,340000	47,320000
2,288073	14,367706	17,300	-0,100473	22,340000	47,320000
2,288805	14,563258	17,351	-0,100393	22,340000	47,320000
2,289494	15,148716	17,401	-0,100155	22,340000	47,320000
2,290166	16,124079	17,451	-0,099758	22,340000	47,335000
2,290851	15,148716	17,501	-0,100155	22,340000	47,335000
2,291607	15,603405	17,552	-0,099970	22,340000	47,335000
2,292283	16,253647	17,602	-0,099705	22,340000	47,335000
2,293043	16,058095	17,653	-0,099785	22,340000	47,335000
2,293703	16,643552	17,703	-0,099546	22,340000	47,335000
2,294350	16,774320	17,754	-0,099493	22,340000	47,335000
2,295086	17,164226	17,807	-0,099334	22,340000	47,335000
2,295768	17,814468	17,858	-0,099070	22,340000	47,335000
2,296494	18,333941	17,908	-0,098858	22,340000	47,335000
2,297171	17,879252	17,959	-0,099043	22,340000	47,335000
2,297873	17,879252	18,009	-0,099043	22,340000	47,335000
2,298588	18,529494	18,059	-0,098779	22,340000	47,335000
2,299239	18,398725	18,109	-0,098832	22,340000	47,335000
2,299990	19,438872	18,159	-0,098409	22,340000	47,335000
2,300611	19,374088	18,209	-0,098435	22,340000	47,335000
2,301386	19,959546	18,263	-0,098197	22,340000	47,335000
2,302110	20,024330	18,313	-0,098170	22,340000	47,335000
2,302807	19,438872	18,363	-0,098409	22,340000	47,335000
2,303494	20,089114	18,414	-0,098144	22,340000	47,335000
2,304186	19,438872	18,464	-0,098409	22,340000	47,335000
2,304902	20,284667	18,520	-0,098064	22,340000	47,335000
2,305580	19,763993	18,570	-0,098276	22,340000	47,335000
2,306259	20,739356	18,620	-0,097879	22,340000	47,335000
2,306952	21,324814	18,671	-0,097641	22,340000	47,335000
2,307671	21,519167	18,721	-0,097562	22,340000	47,335000
2,308434	21,194046	18,771	-0,097694	22,340000	47,335000
2,309080	21,910271	18,821	-0,097403	22,340000	47,335000
2,309837	22,039840	18,872	-0,097350	22,340000	47,335000
2,310490	22,235392	18,922	-0,097271	22,340000	47,335000
2,311197	22,754866	18,972	-0,097059	22,340000	47,335000
2,311877	23,015203	19,022	-0,096953	22,340000	47,335000
2,312568	22,819650	19,072	-0,097033	22,340000	47,335000
2,313282	22,754866	19,122	-0,097059	22,340000	47,335000
2,314021	23,599461	19,172	-0,096715	22,340000	47,335000
2,314740	23,469892	19,222	-0,096768	22,340000	47,335000
2,315405	23,925781	19,272	-0,096583	22,340000	47,335000
2,316098	23,469892	19,328	-0,096768	22,340000	47,335000
2,316773	24,055350	19,378	-0,096530	22,340000	47,335000
2,317477	24,901144	19,428	-0,096186	22,350000	47,360000
2,318225	23,469892	19,479	-0,096768	22,350000	47,360000
2,318848	25,160281	19,529	-0,096080	22,350000	47,360000
2,319584	25,810523	19,580	-0,095815	22,350000	47,360000
2,320319	25,160281	19,630	-0,096080	22,350000	47,360000
2,320972	25,355833	19,681	-0,096000	22,350000	47,360000
2,321668	26,331196	19,731	-0,095604	22,350000	47,360000
2,322360	26,200428	19,781	-0,095657	22,350000	47,360000
2,323095	26,331196	19,832	-0,095604	22,350000	47,360000
2,323774	26,850670	19,883	-0,095392	22,350000	47,360000
2,324534	27,306559	19,933	-0,095207	22,350000	47,360000
2,325175	27,240575	19,983	-0,095233	22,350000	47,360000
2,325868	27,240575	20,034	-0,095233	22,350000	47,360000
2,326577	27,371343	20,084	-0,095180	22,350000	47,360000
2,327275	27,371343	20,135	-0,095180	22,350000	47,360000
2,328004	28,280722	20,187	-0,094810	22,350000	47,360000
2,328685	28,151154	20,237	-0,094863	22,350000	47,360000
2,329410	28,476275	20,287	-0,094730	22,350000	47,360000
2,330136	28,996948	20,337	-0,094519	22,350000	47,360000
2,330818	28,476275	20,388	-0,094730	22,350000	47,360000
2,331470	29,191301	20,438	-0,094439	22,350000	47,360000
2,332232	29,320869	20,494	-0,094387	22,350000	47,360000
2,332849	28,996948	20,544	-0,094519	22,350000	47,360000
2,333603	30,621353	20,594	-0,093857	22,350000	47,360000
2,334242	30,362216	20,644	-0,093963	22,350000	47,360000
2,335002	30,686137	20,696	-0,093831	22,350000	47,360000
2,335656	30,101879	20,746	-0,094069	22,350000	47,360000
2,336415	30,816905	20,797	-0,093778	22,350000	47,360000
2,337079	30,816905	20,848	-0,093778	22,350000	47,360000
2,337814	31,271595	20,898	-0,093593	22,350000	47,360000
2,338431	31,596716	20,949	-0,093460	22,350000	47,360000
2,339149	31,662700	20,999	-0,093434	22,350000	47,360000
2,339953	31,921837	21,049	-0,093328	22,350000	47,360000
2,340613	32,636863	21,100	-0,093037	22,350000	47,360000
2,341250	32,572078	21,150	-0,093063	22,350000	47,360000
2,342027	33,287105	21,201	-0,092772	22,350000	47,360000
2,342687	32,376526	21,251	-0,093143	22,350000	47,360000
2,343349	33,222320	21,301	-0,092799	22,350000	47,360000
2,344077	33,157536	21,351	-0,092825	22,350000	47,360000
2,344795	33,482657	21,401	-0,092693	22,350000	47,360000
2,345489	34,002131	21,451	-0,092481	22,340000	47,320000
2,346196	33,937346	21,501	-0,092508	22,340000	47,320000
2,346927	34,132899	21,551	-0,092428	22,340000	47,320000
2,347586	34,197683	21,602	-0,092402	22,340000	47,320000
2,348289	34,327252	21,653	-0,092349	22,340000	47,320000
2,348977	34,587588	21,704	-0,092243	22,340000	47,320000
2,349689	34,912709	21,754	-0,092111	22,340000	47,320000
2,350408	35,302614	21,804	-0,091952	22,340000	47,320000
2,351115	35,433383	21,854	-0,091899	22,340000	47,320000
2,351848	34,783141	21,904	-0,092164	22,340000	47,320000
2,352536	34,587588	21,954	-0,092243	22,340000	47,320000
2,353156	35,498167	22,005	-0,091873	22,340000	47,320000
2,353923	35,367399	22,056	-0,091926	22,340000	47,320000
2,354594	35,823288	22,106	-0,091740	22,340000	47,320000
2,355283	35,823288	22,157	-0,091740	22,340000	47,320000
2,356028	36,733866	22,207	-0,091370	22,340000	47,320000
2,356669	36,863435	22,257	-0,091317	22,340000	47,320000
2,357397	37,057788	22,307	-0,091238	22,340000	47,320000
2,358136	36,928219	22,358	-0,091291	22,340000	47,320000
2,358750	37,318124	22,409	-0,091132	22,340000	47,320000
2,359476	37,513677	22,459	-0,091052	22,340000	47,320000
2,360188	37,774013	22,510	-0,090946	22,340000	47,320000
2,360823	37,382908	22,560	-0,091105	22,340000	47,320000
2,361581	38,033150	22,610	-0,090841	22,340000	47,320000
2,362303	37,708029	22,660	-0,090973	22,340000	47,320000
2,362985	38,553824	22,711	-0,090629	22,340000	47,320000
2,363638	38,293487	22,761	-0,090735	22,340000	47,320000
2,364428	39,073297	22,813	-0,090417	22,340000	47,320000
2,365100	38,618608	22,864	-0,090603	22,340000	47,320000
2,365812	38,489039	22,914	-0,090655	22,340000	47,320000
2,366478	38,878945	22,964	-0,090497	22,340000	47,320000
2,367115	39,593971	23,014	-0,090206	22,340000	47,320000
2,367912	38,943729	23,064	-0,090470	22,340000	47,320000
2,368565	39,529187	23,116	-0,090232	22,340000	47,320000
2,369329	38,423056	23,166	-0,090682	22,340000	47,320000
2,369998	39,008513	23,217	-0,090444	22,340000	47,320000
2,370695	39,529187	23,267	-0,090232	22,340000	47,320000
2,371382	39,268850	23,318	-0,090338	22,340000	47,320000
2,372158	39,789523	23,368	-0,090126	22,340000	47,320000
2,372722	39,398418	23,419	-0,090285	22,340000	47,335000
2,373481	39,333634	23,469	-0,090312	22,340000	47,335000
2,374197	39,593971	23,519	-0,090206	22,340000	47,335000
2,374897	40,503350	23,569	-0,089835	22,340000	47,335000
2,375590	40,698902	23,619	-0,089756	22,340000	47,335000
2,376272	40,959239	23,689	-0,089650	22,340000	47,335000
2,377049	41,024023	23,739	-0,089624	22,340000	47,335000
2,377688	40,634118	23,789	-0,089782	22,340000	47,335000
2,378368	40,894454	23,840	-0,089676	22,340000	47,335000
2,379066	40,373781	23,890	-0,089888	22,340000	47,335000
2,379792	40,763686	23,940	-0,089729	22,340000	47,335000
2,380504	41,219575	23,990	-0,089544	22,340000	47,335000
2,381248	41,024023	24,040	-0,089624	22,340000	47,335000
2,381890	41,088807	24,090	-0,089597	22,340000	47,335000
2,382561	41,088807	24,140	-0,089597	22,340000	47,335000
2,383317	40,959239	24,190	-0,089650	22,340000	47,335000
2,383988	41,349144	24,241	-0,089491	22,340000	47,335000
2,384704	41,609481	24,291	-0,089385	22,340000	47,335000
2,385373	42,064170	24,341	-0,089200	22,340000	47,335000
2,386054	41,869817	24,391	-0,089279	22,340000	47,335000
2,386768	42,324507	24,441	-0,089094	22,340000	47,335000
2,387474	42,259722	24,496	-0,089121	22,340000	47,335000
2,388223	42,649628	24,547	-0,088962	22,340000	47,335000
2,388927	42,389291	24,597	-0,089068	22,340000	47,335000
2,389607	42,908765	24,647	-0,088856	22,340000	47,335000
2,390314	42,779196	24,699	-0,088909	22,340000	47,335000
2,390941	43,429438	24,749	-0,088645	22,340000	47,335000
2,391731	44,534369	24,799	-0,088195	22,340000	47,335000
2,392377	44,079680	24,850	-0,088380	22,340000	47,335000
2,393039	44,729922	24,902	-0,088115	22,340000	47,335000
2,393827	44,794706	24,952	-0,088089	22,340000	47,335000
2,394535	44,665137	25,002	-0,088142	22,340000	47,335000
2,395188	44,860690	25,053	-0,088062	22,340000	47,335000
2,395976	45,055043	25,103	-0,087983	22,340000	47,335000
2,396539	44,469585	25,153	-0,088221	22,340000	47,335000
2,397274	45,184611	25,203	-0,087930	22,340000	47,335000
2,397931	45,444948	25,253	-0,087824	22,340000	47,335000
2,398687	46,030405	25,303	-0,087586	22,340000	47,335000
2,399403	45,509732	25,353	-0,087798	22,340000	47,335000
2,400056	46,095190	25,403	-0,087560	22,340000	47,335000
2,400779	45,900837	25,453	-0,087639	22,340000	47,350000
2,401490	45,640500	25,504	-0,087745	22,340000	47,350000
2,402165	46,095190	25,554	-0,087560	22,340000	47,350000
2,402896	46,290742	25,604	-0,087480	22,340000	47,350000
2,403528	47,460458	25,654	-0,087004	22,340000	47,350000
2,404298	47,348885	25,704	-0,087049	22,340000	47,350000
2,404989	47,070552	25,754	-0,087163	22,340000	47,350000
2,405701	47,330889	25,804	-0,087057	22,340000	47,350000
2,406398	47,656010	25,854	-0,086924	22,340000	47,350000
2,407095	47,981131	25,904	-0,086792	22,340000	47,350000
2,407755	47,330889	25,954	-0,087057	22,340000	47,350000
2,408460	47,656010	26,004	-0,086924	22,340000	47,350000
2,409139	48,565389	26,054	-0,086554	22,340000	47,350000
2,409870	48,175484	26,105	-0,086713	22,340000	47,350000
2,410603	47,981131	26,155	-0,086792	22,340000	47,350000
2,411290	47,916347	26,206	-0,086818	22,340000	47,350000
2,411921	49,150847	26,257	-0,086316	22,340000	47,350000
2,412692	49,021278	26,314	-0,086369	22,340000	47,350000
2,413356	49,346399	26,364	-0,086236	22,340000	47,350000
2,414032	49,411183	26,414	-0,086210	22,340000	47,350000
2,414786	49,215631	26,464	-0,086290	22,340000	47,350000
2,415468	49,671520	26,515	-0,086104	22,340000	47,350000
2,416189	49,801088	26,565	-0,086051	22,340000	47,350000
2,416819	50,190994	26,615	-0,085893	22,340000	47,350000
2,417579	50,906020	26,665	-0,085602	22,340000	47,350000
2,418275	50,645683	26,715	-0,085708	22,340000	47,350000
2,418959	50,582098	26,765	-0,085733	22,340000	47,350000
2,419664	51,361909	26,815	-0,085416	22,340000	47,350000
2,420394	52,531624	26,865	-0,084940	22,340000	47,350000
2,421044	52,012151	26,938	-0,085151	22,340000	47,350000
2,421763	52,012151	26,988	-0,085151	22,340000	47,350000
2,422505	52,402056	27,038	-0,084993	22,340000	47,350000
2,423160	53,311435	27,088	-0,084623	22,340000	47,350000
2,423859	53,246650	27,138	-0,084649	22,340000	47,350000
2,424513	53,377419	27,188	-0,084596	22,340000	47,350000
2,425261	53,571771	27,238	-0,084517	22,340000	47,350000
2,426002	53,637755	27,294	-0,084490	22,340000	47,350000
2,426693	53,961677	27,344	-0,084358	22,340000	47,350000
2,427382	54,092445	27,394	-0,084305	22,340000	47,350000
2,428072	53,767324	27,444	-0,084437	22,340000	47,320000
2,428762	55,001824	27,494	-0,083935	22,340000	47,320000
2,429557	55,001824	27,544	-0,083935	22,340000	47,320000
2,430185	54,547134	27,594	-0,084120	22,340000	47,320000
2,430919	55,326944	27,646	-0,083802	22,340000	47,320000
2,431628	55,782834	27,696	-0,083617	22,340000	47,320000
2,432316	56,367092	27,746	-0,083379	22,340000	47,320000
2,432957	56,887765	27,797	-0,083167	22,340000	47,320000
2,433678	56,302307	27,847	-0,083405	22,340000	47,320000
2,434388	57,473223	27,897	-0,082929	22,340000	47,320000
2,435105	57,017333	27,947	-0,083114	22,340000	47,320000
2,435823	57,602791	27,998	-0,082876	22,340000	47,320000
2,436498	57,342454	28,048	-0,082982	22,340000	47,320000
2,437230	58,057480	28,098	-0,082691	22,340000	47,320000
2,437874	57,798343	28,148	-0,082796	22,340000	47,320000
2,438572	58,772507	28,198	-0,082400	22,340000	47,320000
2,439314	58,772507	28,249	-0,082400	22,340000	47,320000
2,439976	59,488732	28,299	-0,082108	22,340000	47,320000
2,440650	58,968059	28,349	-0,082320	22,340000	47,320000
2,441412	60,072990	28,399	-0,081871	22,340000	47,320000
2,442106	60,333327	28,449	-0,081765	22,340000	47,320000
2,442817	59,812654	28,510	-0,081977	22,340000	47,320000
2,443465	60,593664	28,566	-0,081659	22,340000	47,320000
2,444213	60,723232	28,616	-0,081606	22,340000	47,320000
2,444856	60,462895	28,666	-0,081712	22,340000	47,320000
2,445575	60,788016	28,717	-0,081580	22,340000	47,320000
2,446303	60,918785	28,767	-0,081526	22,340000	47,320000
2,447002	62,284053	28,817	-0,080971	22,340000	47,320000
2,447633	62,413621	28,867	-0,080918	22,340000	47,320000
2,448367	62,738742	28,933	-0,080786	22,340000	47,320000
2,449075	62,869510	28,983	-0,080732	22,340000	47,320000
2,449770	63,194631	29,033	-0,080600	22,340000	47,320000
2,450511	63,453768	29,083	-0,080495	22,340000	47,320000
2,451148	63,843673	29,133	-0,080336	22,340000	47,320000
2,451894	63,649320	29,184	-0,080415	22,340000	47,320000
2,452579	64,559899	29,234	-0,080044	22,340000	47,320000
2,453298	64,883820	29,294	-0,079913	22,340000	47,320000
2,453940	64,883820	29,348	-0,079913	22,340000	47,320000
2,454671	64,820236	29,398	-0,079938	22,340000	47,320000
2,455411	65,664830	29,449	-0,079595	22,340000	47,360000
2,456081	65,469278	29,499	-0,079674	22,340000	47,360000
2,456835	65,729615	29,550	-0,079568	22,340000	47,360000
2,457441	66,444641	29,600	-0,079277	22,340000	47,360000
2,458160	66,054735	29,650	-0,079436	22,340000	47,360000
2,458886	66,379856	29,702	-0,079304	22,340000	47,360000
2,459587	66,704977	29,752	-0,079171	22,340000	47,360000
2,460304	67,420003	29,802	-0,078880	22,340000	47,360000
2,461015	68,330582	29,852	-0,078510	22,340000	47,360000
2,461683	68,265798	29,902	-0,078536	22,340000	47,360000
2,462389	68,589719	29,952	-0,078404	22,340000	47,360000
2,463135	67,875893	30,002	-0,078695	22,340000	47,360000
2,463769	68,330582	30,052	-0,078510	22,340000	47,360000
2,464489	68,655703	30,102	-0,078377	22,340000	47,360000
2,465181	69,631066	30,153	-0,077980	22,340000	47,360000
2,465878	69,956187	30,203	-0,077848	22,340000	47,360000
2,466547	69,956187	30,253	-0,077848	22,340000	47,360000
2,467254	70,215324	30,303	-0,077743	22,340000	47,360000
2,468024	70,671213	30,354	-0,077557	22,340000	47,360000
2,468738	71,190686	30,404	-0,077346	22,340000	47,360000
2,469361	71,451023	30,454	-0,077240	22,340000	47,360000
2,470065	71,840928	30,504	-0,077081	22,340000	47,360000
2,470769	71,386239	30,554	-0,077266	22,340000	47,360000
2,471425	71,971696	30,604	-0,077028	22,340000	47,360000
2,472159	72,361602	30,654	-0,076869	22,340000	47,360000
2,472919	72,555954	30,704	-0,076790	22,340000	47,360000
2,473583	72,751507	30,754	-0,076710	22,340000	47,360000
2,474301	72,751507	30,804	-0,076710	22,340000	47,360000
2,474996	73,791654	30,854	-0,076287	22,340000	47,360000
2,475684	73,791654	30,904	-0,076287	22,340000	47,360000
2,476392	73,660886	30,954	-0,076340	22,340000	47,360000
2,477090	73,401749	31,004	-0,076446	22,340000	47,360000
2,477830	74,702232	31,054	-0,075917	22,340000	47,360000
2,478519	75,286490	31,104	-0,075679	22,340000	47,360000
2,479208	74,506680	31,155	-0,075996	22,340000	47,360000
2,479825	75,352474	31,205	-0,075652	22,340000	47,360000
2,480570	75,871948	31,255	-0,075440	22,340000	47,360000
2,481301	75,676396	31,305	-0,075520	22,340000	47,360000
2,482001	75,871948	31,356	-0,075440	22,340000	47,360000
2,482689	76,782526	31,407	-0,075070	22,340000	47,360000
2,483336	76,586974	31,457	-0,075149	22,340000	47,360000
2,484099	77,432768	31,507	-0,074805	22,340000	47,360000
2,484756	77,107647	31,557	-0,074938	22,340000	47,360000
2,485476	77,757889	31,608	-0,074673	22,340000	47,360000
2,486139	77,691905	31,659	-0,074700	22,340000	47,360000
2,486858	77,887458	31,709	-0,074620	22,340000	47,360000
2,487572	78,668468	31,759	-0,074302	22,340000	47,360000
2,488291	79,252726	31,810	-0,074064	22,340000	47,360000
2,488997	79,317510	31,861	-0,074038	22,340000	47,360000
2,489672	79,707415	31,912	-0,073879	22,340000	47,360000
2,490376	79,902968	31,963	-0,073800	22,340000	47,360000
2,491057	80,032536	32,013	-0,073747	22,340000	47,360000
2,491764	80,098520	32,064	-0,073720	22,340000	47,360000
2,492472	80,747562	32,122	-0,073456	22,340000	47,360000
2,493185	80,813546	32,197	-0,073429	22,340000	47,360000
2,493895	81,463788	32,247	-0,073165	22,340000	47,360000
2,494563	81,463788	32,298	-0,073165	22,340000	47,360000
2,495241	82,373167	32,348	-0,072794	22,340000	47,360000
2,495985	82,893840	32,399	-0,072583	22,340000	47,360000
2,496699	82,503935	32,449	-0,072741	22,340000	47,360000
2,497392	82,698288	32,499	-0,072662	22,340000	47,360000
2,498059	82,633504	32,549	-0,072688	22,340000	47,360000
2,498828	83,479298	32,600	-0,072344	22,340000	47,360000
2,499443	82,958624	32,650	-0,072556	22,340000	47,360000
2,500149	83,933987	32,700	-0,072159	22,340000	47,360000
2,500886	84,388677	32,750	-0,071974	22,340000	47,360000
2,501570	84,713798	32,801	-0,071842	22,340000	47,360000
2,502277	84,194324	32,851	-0,072053	22,340000	47,360000
2,502959	84,259108	32,903	-0,072027	22,340000	47,360000
2,503729	85,818729	32,953	-0,071392	22,340000	47,360000
2,504348	86,014281	33,003	-0,071313	22,340000	47,360000
2,505111	85,493608	33,054	-0,071524	22,340000	47,360000
2,505760	86,664523	33,104	-0,071048	22,340000	47,360000
2,506460	86,599739	33,155	-0,071074	22,340000	47,360000
2,507148	86,404187	33,249	-0,071154	22,340000	47,360000
2,507918	86,729307	33,516	-0,071021	22,340000	47,360000
2,508629	86,404187	33,568	-0,071154	22,340000	47,360000
2,509347	86,664523	33,618	-0,071048	22,340000	47,360000
2,509910	87,509118	33,668	-0,070704	22,340000	47,360000
2,510684	88,029791	33,738	-0,070492	22,340000	47,360000
2,511392	88,549265	33,795	-0,070281	22,340000	47,360000
2,512065	88,615249	33,850	-0,070254	22,340000	47,360000
2,512744	89,395059	33,901	-0,069937	22,340000	47,360000
2,513506	88,484481	33,951	-0,070307	22,340000	47,360000
2,514134	89,330275	34,001	-0,069963	22,340000	47,360000
2,514867	89,655396	34,052	-0,069831	22,340000	47,360000
2,515565	89,655396	34,102	-0,069831	22,340000	47,360000
2,516272	91,020664	34,153	-0,069275	22,340000	47,360000
2,517010	90,435206	34,203	-0,069513	22,340000	47,360000
2,517675	91,215017	34,254	-0,069196	22,340000	47,360000
2,518391	91,540137	34,304	-0,069063	22,340000	47,360000
2,519048	92,321147	34,355	-0,068746	22,340000	47,360000
2,519821	91,410569	34,405	-0,069116	22,340000	47,360000
2,520480	91,865258	34,455	-0,068931	22,340000	47,360000
2,521200	92,321147	34,505	-0,068746	22,340000	47,360000
2,521868	92,840621	34,565	-0,068534	22,340000	47,360000
2,522534	92,970190	34,615	-0,068481	22,340000	47,360000
2,523286	92,711053	34,665	-0,068587	22,340000	47,360000
2,523949	93,751200	34,715	-0,068164	22,340000	47,360000
2,524667	94,205889	34,765	-0,067979	22,340000	47,360000
2,525385	93,751200	34,815	-0,068164	22,340000	47,360000
2,526103	94,856131	34,865	-0,067714	22,340000	47,360000
2,526768	94,985699	34,915	-0,067661	22,340000	47,360000
2,527485	95,506373	34,965	-0,067449	22,340000	47,360000
2,528171	95,506373	35,016	-0,067449	22,340000	47,360000
2,528876	95,635941	35,066	-0,067396	22,340000	47,360000
2,529551	96,676088	35,116	-0,066973	22,340000	47,360000
2,530274	96,221399	35,166	-0,067158	22,340000	47,360000
2,530985	96,742072	35,216	-0,066946	22,340000	47,360000
2,531692	96,742072	35,266	-0,066946	22,340000	47,360000
2,532410	97,521883	35,318	-0,066629	22,340000	47,360000
2,533003	97,457098	35,368	-0,066655	22,340000	47,360000
2,533803	98,042556	35,418	-0,066417	22,350000	47,335000
2,534482	98,236909	35,469	-0,066338	22,350000	47,335000
2,535138	98,626814	35,524	-0,066179	22,350000	47,335000
2,535840	98,691598	35,578	-0,066153	22,350000	47,335000
2,536598	99,732945	35,631	-0,065729	22,350000	47,335000
2,537293	99,732945	35,681	-0,065729	22,350000	47,335000
2,538002	100,447971	35,740	-0,065438	22,350000	47,335000
2,538665	100,967445	35,790	-0,065227	22,350000	47,335000
2,539421	100,512755	35,841	-0,065412	22,350000	47,335000
2,540036	101,033429	35,891	-0,065200	22,350000	47,335000
2,540786	101,033429	35,941	-0,065200	22,350000	47,335000
2,541475	101,747255	35,991	-0,064909	22,350000	47,335000
2,542164	101,813239	36,041	-0,064882	22,350000	47,335000
2,542912	101,747255	36,116	-0,064909	22,350000	47,335000
2,543606	102,593049	36,166	-0,064565	22,350000	47,335000
2,544296	102,982955	36,216	-0,064406	22,350000	47,335000
2,544966	103,503628	36,266	-0,064194	22,350000	47,335000
2,545680	103,047739	36,316	-0,064380	22,350000	47,335000
2,546402	103,697981	36,366	-0,064115	22,350000	47,335000
2,547093	103,503628	36,416	-0,064194	22,350000	47,335000
2,547811	104,283438	36,467	-0,063877	22,350000	47,335000
2,548503	104,998464	36,517	-0,063586	22,350000	47,335000
2,549232	104,998464	36,567	-0,063586	22,350000	47,335000
2,549919	105,063249	36,617	-0,063560	22,350000	47,335000
2,550565	105,388370	36,667	-0,063427	22,350000	47,335000
2,551251	105,258801	36,718	-0,063480	22,350000	47,335000
2,552013	105,844259	36,768	-0,063242	22,350000	47,335000
2,552678	106,298948	36,818	-0,063057	22,350000	47,335000
2,553370	107,013974	36,868	-0,062766	22,350000	47,335000
2,554085	107,144742	36,918	-0,062712	22,350000	47,335000
2,554761	107,924553	36,969	-0,062395	22,350000	47,335000
2,555444	108,054121	37,019	-0,062342	22,350000	47,335000
2,556201	108,379242	37,069	-0,062210	22,350000	47,335000
2,556873	108,379242	37,119	-0,062210	22,350000	47,335000
2,557573	109,289821	37,169	-0,061839	22,350000	47,335000
2,558274	109,614942	37,219	-0,061707	22,350000	47,335000
2,559012	108,899916	37,269	-0,061998	22,350000	47,335000
2,559678	109,679726	37,320	-0,061681	22,350000	47,335000
2,560376	109,160252	37,370	-0,061892	22,350000	47,335000
2,561052	110,459536	37,420	-0,061363	22,350000	47,335000
2,561804	109,874079	37,471	-0,061602	22,350000	47,335000
2,562541	110,719873	37,522	-0,061257	22,350000	47,335000
2,563161	111,695236	37,573	-0,060860	22,350000	47,335000
2,563888	111,760020	37,623	-0,060834	22,350000	47,335000
2,564569	111,955572	37,674	-0,060754	22,350000	47,335000
2,565288	112,539830	37,727	-0,060517	22,350000	47,335000
2,566004	112,020357	37,777	-0,060728	22,350000	47,335000
2,566732	113,190072	37,828	-0,060252	22,350000	47,335000
2,567383	112,670599	37,878	-0,060463	22,350000	47,335000
2,567995	113,775530	37,928	-0,060014	22,350000	47,335000
2,568766	113,905098	37,979	-0,059961	22,350000	47,335000
2,569449	113,971082	38,029	-0,059934	22,350000	47,335000
2,570165	114,621324	38,080	-0,059669	22,350000	47,335000
2,570843	114,425772	38,131	-0,059749	22,350000	47,335000
2,571605	115,011229	38,181	-0,059511	22,350000	47,335000
2,572290	115,076014	38,232	-0,059484	22,350000	47,335000
2,573012	116,051376	38,282	-0,059087	22,350000	47,335000
2,573678	115,921808	38,333	-0,059140	22,350000	47,335000
2,574315	116,701618	38,383	-0,058823	22,350000	47,335000
2,575044	116,051376	38,433	-0,059087	22,350000	47,335000
2,575767	117,091523	38,486	-0,058664	22,350000	47,335000
2,576507	117,026739	38,536	-0,058690	22,350000	47,335000
2,577214	117,221092	38,586	-0,058611	22,350000	47,335000
2,577858	118,066886	38,636	-0,058267	22,350000	47,335000
2,578548	116,635634	38,686	-0,058850	22,350000	47,335000
2,579300	118,327223	38,736	-0,058161	22,350000	47,335000
2,579953	118,000902	38,786	-0,058294	22,350000	47,335000
2,580649	118,911481	38,836	-0,057923	22,350000	47,335000
2,581408	118,651144	38,898	-0,058029	22,350000	47,335000
2,582080	119,757275	38,949	-0,057579	22,350000	47,335000
2,582760	119,757275	39,000	-0,057579	22,350000	47,335000
2,583495	119,822059	39,051	-0,057553	22,350000	47,335000
2,584185	120,147180	39,101	-0,057420	22,350000	47,335000
2,584907	120,082396	39,151	-0,057447	22,350000	47,335000
2,585592	120,797422	39,201	-0,057156	22,350000	47,335000
2,586235	120,992975	39,251	-0,057076	22,350000	47,335000
2,587005	122,487811	39,316	-0,056468	22,350000	47,335000
2,587709	121,902353	39,366	-0,056706	22,350000	47,335000
2,588340	122,097906	39,417	-0,056626	22,340000	47,335000
2,589069	123,788295	39,467	-0,055938	22,340000	47,335000
2,589780	123,853079	39,517	-0,055912	22,340000	47,335000
2,590446	123,138053	39,568	-0,056203	22,340000	47,335000
2,591160	124,307768	39,619	-0,055727	22,340000	47,335000
2,591849	124,568105	39,669	-0,055621	22,340000	47,335000
2,592573	124,893226	39,719	-0,055489	22,340000	47,335000
2,593215	124,632889	39,770	-0,055595	22,340000	47,335000
2,593928	125,088778	39,820	-0,055409	22,340000	47,335000
2,594709	125,478684	39,871	-0,055250	22,340000	47,335000
2,595363	125,088778	39,921	-0,055409	22,340000	47,335000
2,596114	125,478684	39,972	-0,055250	22,340000	47,335000
2,596795	125,347915	40,022	-0,055304	22,340000	47,335000
2,597468	126,973520	40,072	-0,054642	22,340000	47,335000
2,598141	126,454046	40,123	-0,054854	22,340000	47,335000
2,598895	128,144435	40,173	-0,054166	22,340000	47,335000
2,599543	127,558978	40,224	-0,054404	22,340000	47,335000
2,600265	127,948883	40,274	-0,054245	22,340000	47,335000
2,600943	128,924246	40,324	-0,053848	22,340000	47,335000
2,601702	128,924246	40,374	-0,053848	22,340000	47,335000
2,602383	129,249367	40,424	-0,053716	22,340000	47,335000
2,603099	129,053814	40,474	-0,053795	22,340000	47,335000
2,603806	129,378935	40,540	-0,053663	22,340000	47,335000
2,604509	129,509703	40,590	-0,053610	22,340000	47,335000
2,605171	129,378935	40,640	-0,053663	22,340000	47,335000
2,605927	129,704056	40,690	-0,053531	22,340000	47,335000
2,606569	130,614635	40,740	-0,053160	22,340000	47,335000
2,607211	131,329661	40,790	-0,052869	22,340000	47,335000
2,607980	130,808987	40,840	-0,053081	22,340000	47,335000
2,608662	131,329661	40,891	-0,052869	22,340000	47,335000
2,609374	132,369808	40,941	-0,052446	22,340000	47,335000
2,610043	132,694929	40,992	-0,052313	22,340000	47,335000
2,610836	132,434592	41,042	-0,052419	22,340000	47,335000
2,611502	133,345170	41,092	-0,052049	22,340000	47,335000
2,612166	133,995412	41,142	-0,051784	22,340000	47,335000
2,612889	133,735076	41,192	-0,051890	22,340000	47,335000
2,613588	134,060197	41,243	-0,051758	22,340000	47,335000
2,614315	134,320533	41,302	-0,051652	22,340000	47,335000
2,614991	134,841207	41,352	-0,051440	22,340000	47,335000
2,615668	134,970775	41,402	-0,051387	22,340000	47,335000
2,616338	135,165128	41,452	-0,051308	22,340000	47,335000
2,617109	135,360680	41,503	-0,051229	22,340000	47,335000
2,617785	135,231112	41,553	-0,051281	22,340000	47,335000
2,618418	134,775223	41,603	-0,051467	22,340000	47,335000
2,619132	135,750585	41,653	-0,051070	22,340000	47,335000
2,619874	135,880154	41,703	-0,051017	22,340000	47,335000
2,620547	137,051069	41,754	-0,050541	22,340000	47,335000
2,621280	136,530396	41,804	-0,050752	22,340000	47,335000
2,621965	137,505759	41,854	-0,050355	22,340000	47,335000
2,622648	137,701311	41,904	-0,050276	22,340000	47,335000
2,623385	138,286769	41,955	-0,050038	22,340000	47,335000
2,624032	138,545906	42,005	-0,049932	22,340000	47,335000
2,624740	138,741458	42,055	-0,049853	22,340000	47,335000
2,625446	138,871027	42,105	-0,049800	22,340000	47,335000
2,626208	138,935811	42,155	-0,049773	22,340000	47,335000
2,626870	139,781605	42,205	-0,049429	22,340000	47,335000
2,627576	138,610690	42,255	-0,049906	22,340000	47,335000
2,628299	140,367063	42,305	-0,049191	22,340000	47,335000
2,628947	140,756968	42,355	-0,049032	22,340000	47,335000
2,629652	140,431847	42,406	-0,049165	22,340000	47,335000
2,630333	141,016105	42,456	-0,048927	22,340000	47,335000
2,631033	141,536778	42,520	-0,048715	22,340000	47,335000
2,631715	141,991468	42,570	-0,048530	22,340000	47,335000
2,632470	141,471994	42,620	-0,048741	22,340000	47,335000
2,633137	142,122236	42,670	-0,048477	22,340000	47,335000
2,633813	142,187020	42,721	-0,048450	22,340000	47,335000
2,634554	142,966830	42,771	-0,048133	22,340000	47,335000
2,635223	143,031615	42,821	-0,048106	22,340000	47,335000
2,635924	143,357935	42,871	-0,047974	22,340000	47,335000
2,636692	143,681857	42,924	-0,047842	22,340000	47,335000
2,637382	143,942193	42,975	-0,047736	22,340000	47,335000
2,638052	144,722004	43,026	-0,047418	22,340000	47,335000
2,638768	144,527651	43,076	-0,047498	22,340000	47,335000
2,639444	145,438229	43,127	-0,047127	22,340000	47,335000
2,640189	144,917556	43,177	-0,047339	22,340000	47,335000
2,640855	146,023687	43,229	-0,046889	22,340000	47,335000
2,641545	146,218040	43,279	-0,046810	22,340000	47,335000
2,642271	146,282824	43,347	-0,046783	22,340000	47,335000
2,642987	146,413592	43,397	-0,046730	22,340000	47,335000
2,643624	147,128618	43,447	-0,046439	22,340000	47,335000
2,644394	147,322971	43,497	-0,046360	22,340000	47,335000
2,645057	147,453739	43,547	-0,046307	22,340000	47,335000
2,645761	148,429102	43,598	-0,045910	22,340000	47,335000
2,646493	148,363118	43,649	-0,045937	22,340000	47,335000
2,647164	148,883791	43,700	-0,045725	22,340000	47,335000
2,647940	148,753023	43,751	-0,045778	22,340000	47,335000
2,648559	149,663602	43,801	-0,045407	22,340000	47,335000
2,649269	150,249059	43,852	-0,045169	22,340000	47,335000
2,649906	150,119491	43,902	-0,045222	22,340000	47,335000
2,650655	150,119491	43,952	-0,045222	22,340000	47,335000
2,651415	151,093654	44,002	-0,044825	22,340000	47,335000
2,652065	150,119491	44,052	-0,045222	22,340000	47,335000
2,652822	150,378628	44,110	-0,045116	22,340000	47,335000
2,653484	151,158438	44,161	-0,044799	22,340000	47,335000
2,654151	152,135001	44,212	-0,044401	22,340000	47,335000
2,654899	151,939448	44,262	-0,044481	22,340000	47,335000
2,655585	152,135001	44,312	-0,044401	22,340000	47,335000
2,656280	152,848827	44,362	-0,044111	22,340000	47,335000
2,656948	152,914811	44,412	-0,044084	22,340000	47,335000
2,657643	152,979595	44,462	-0,044058	22,340000	47,335000
2,658351	153,499069	44,512	-0,043846	22,340000	47,335000
2,659049	153,109164	44,562	-0,044005	22,340000	47,335000
2,659815	153,565053	44,612	-0,043819	22,340000	47,335000
2,660451	153,759406	44,662	-0,043740	22,340000	47,335000
2,661212	154,995105	44,713	-0,043237	22,340000	47,335000
2,661884	155,254242	44,763	-0,043132	22,340000	47,335000
2,662554	154,409648	44,815	-0,043476	22,340000	47,335000
2,663265	155,580563	44,866	-0,042999	22,340000	47,335000
2,663949	156,100036	44,916	-0,042788	22,340000	47,335000
2,664628	155,839700	44,967	-0,042894	22,340000	47,335000
2,665413	156,360373	45,018	-0,042682	22,340000	47,335000
2,666069	156,815063	45,068	-0,042497	22,340000	47,335000
2,666733	156,295589	45,119	-0,042708	22,340000	47,335000
2,667501	157,270952	45,169	-0,042311	22,340000	47,335000
2,668169	157,530089	45,219	-0,042206	22,340000	47,335000
2,668862	157,790425	45,270	-0,042100	22,340000	47,335000
2,669554	157,855210	45,320	-0,042073	22,340000	47,335000
2,670275	157,855210	45,371	-0,042073	22,340000	47,335000
2,670963	159,351246	45,422	-0,041464	22,350000	47,335000
2,671647	159,090909	45,472	-0,041570	22,350000	47,335000
2,672325	159,026125	45,522	-0,041597	22,350000	47,335000
2,672989	159,416030	45,572	-0,041438	22,350000	47,335000
2,673802	159,286462	45,623	-0,041491	22,350000	47,335000
2,674489	159,611582	45,674	-0,041358	22,350000	47,335000
2,675195	160,195840	45,729	-0,041121	22,350000	47,335000
2,675874	160,066272	45,779	-0,041173	22,350000	47,335000
2,676557	160,651729	45,829	-0,040935	22,350000	47,335000
2,677297	160,456177	45,884	-0,041015	22,350000	47,335000
2,677951	161,625893	45,934	-0,040539	22,350000	47,335000
2,678655	161,431540	45,985	-0,040618	22,350000	47,335000
2,679428	161,561108	46,035	-0,040565	22,350000	47,335000
2,680060	161,821445	46,086	-0,040459	22,350000	47,335000
2,680807	161,821445	46,136	-0,040459	22,350000	47,335000
2,681429	162,796808	46,187	-0,040062	22,350000	47,335000
2,682200	163,382265	46,237	-0,039824	22,350000	47,335000
2,682859	163,447050	46,288	-0,039797	22,350000	47,335000
2,683541	163,641402	46,339	-0,039718	22,350000	47,335000
2,684263	163,641402	46,389	-0,039718	22,350000	47,335000
2,684942	164,031308	46,440	-0,039560	22,350000	47,335000
2,685670	164,812318	46,491	-0,039242	22,350000	47,335000
2,686347	164,551981	46,549	-0,039348	22,350000	47,335000
2,687056	164,747533	46,599	-0,039268	22,350000	47,335000
2,687792	165,462560	46,649	-0,038977	22,350000	47,335000
2,688480	165,656912	46,699	-0,038898	22,350000	47,335000
2,689159	166,502707	46,749	-0,038554	22,350000	47,335000
2,689888	166,502707	46,799	-0,038554	22,350000	47,335000
2,690514	166,697059	46,849	-0,038475	22,350000	47,335000
2,691293	167,088164	46,907	-0,038315	22,350000	47,335000
2,691952	167,282517	46,958	-0,038236	22,350000	47,335000
2,692683	168,388648	47,008	-0,037786	22,350000	47,335000
2,693370	168,843337	47,058	-0,037601	22,350000	47,335000
2,693985	168,843337	47,108	-0,037601	22,350000	47,335000
2,694759	169,102474	47,158	-0,037496	22,350000	47,335000
2,695452	168,583001	47,208	-0,037707	22,350000	47,335000
2,696169	169,298027	47,259	-0,037416	22,350000	47,335000
2,696847	169,298027	47,309	-0,037416	22,350000	47,335000
2,697582	170,468942	47,359	-0,036939	22,350000	47,335000
2,698279	170,402958	47,409	-0,036966	22,350000	47,335000
2,698922	170,468942	47,460	-0,036939	22,340000	47,350000
2,699646	170,598510	47,510	-0,036887	22,340000	47,350000
2,700372	170,988416	47,560	-0,036728	22,340000	47,350000
2,701008	171,703442	47,610	-0,036437	22,340000	47,350000
2,701724	171,248752	47,661	-0,036622	22,340000	47,350000
2,702420	171,313537	47,711	-0,036596	22,340000	47,350000
2,703164	172,678805	47,762	-0,036040	22,340000	47,350000
2,703885	173,068710	47,812	-0,035881	22,340000	47,350000
2,704555	173,003925	47,863	-0,035908	22,340000	47,350000
2,705257	173,133494	47,914	-0,035855	22,340000	47,350000
2,705971	173,264262	47,964	-0,035802	22,340000	47,350000
2,706661	173,133494	48,014	-0,035855	22,340000	47,350000
2,707410	173,459815	48,064	-0,035722	22,340000	47,350000
2,708051	174,759099	48,115	-0,035193	22,340000	47,350000
2,708739	174,433978	48,166	-0,035326	22,340000	47,350000
2,709464	175,409340	48,216	-0,034929	22,340000	47,350000
2,710149	176,384703	48,266	-0,034532	22,340000	47,350000
2,710858	175,540109	48,316	-0,034875	22,340000	47,350000
2,711598	175,930014	48,367	-0,034717	22,340000	47,350000
2,712231	175,734461	48,418	-0,034796	22,340000	47,350000
2,712993	176,384703	48,468	-0,034532	22,340000	47,350000
2,713683	176,839393	48,527	-0,034347	22,340000	47,350000
2,714348	177,555618	48,577	-0,034055	22,340000	47,350000
2,715044	177,424850	48,627	-0,034108	22,340000	47,350000
2,715726	177,749971	48,678	-0,033976	22,340000	47,350000
2,716473	178,270645	48,729	-0,033764	22,340000	47,350000
2,717173	178,595766	48,779	-0,033632	22,340000	47,350000
2,717865	179,310792	48,829	-0,033341	22,340000	47,350000
2,718529	179,115239	48,879	-0,033420	22,340000	47,350000
2,719236	179,244808	48,941	-0,033368	22,340000	47,350000
2,719969	179,505144	48,991	-0,033262	22,340000	47,350000
2,720638	180,415723	49,042	-0,032891	22,340000	47,350000
2,721359	180,415723	49,093	-0,032891	22,340000	47,350000
2,722114	180,870412	49,144	-0,032706	22,340000	47,350000
2,722722	181,001181	49,194	-0,032653	22,340000	47,350000
2,723475	181,716207	49,244	-0,032362	22,340000	47,350000
2,724231	181,780991	49,294	-0,032335	22,340000	47,350000
2,724840	182,756354	49,344	-0,031938	22,340000	47,350000
2,725581	183,016690	49,395	-0,031833	22,340000	47,350000
2,726215	182,756354	49,446	-0,031938	22,340000	47,335000
2,726885	182,885922	49,497	-0,031886	22,340000	47,335000
2,727681	182,626785	49,548	-0,031991	22,340000	47,335000
2,728329	183,471380	49,603	-0,031647	22,340000	47,335000
2,729013	183,406596	49,654	-0,031674	22,340000	47,335000
2,729730	183,600948	49,712	-0,031595	22,340000	47,335000
2,730445	183,926069	49,762	-0,031462	22,340000	47,335000
2,731151	185,747226	49,812	-0,030721	22,340000	47,335000
2,731861	184,836648	49,862	-0,031092	22,340000	47,335000
2,732574	185,486890	49,912	-0,030827	22,340000	47,335000
2,733248	186,397468	49,962	-0,030457	22,340000	47,335000
2,733943	186,072347	50,012	-0,030589	22,340000	47,335000
2,734604	185,551674	50,065	-0,030801	22,340000	47,335000
2,735305	186,397468	50,116	-0,030457	22,340000	47,335000
2,736054	186,722589	50,166	-0,030324	22,340000	47,335000
2,736758	187,047710	50,216	-0,030192	22,340000	47,335000
2,737445	187,047710	50,266	-0,030192	22,340000	47,335000
2,738121	188,348194	50,316	-0,029663	22,340000	47,335000
2,738849	186,981726	50,381	-0,030219	22,340000	47,335000
2,739568	188,282210	50,431	-0,029689	22,340000	47,335000
2,740230	187,957089	50,481	-0,029822	22,340000	47,335000
2,740982	188,477762	50,541	-0,029610	22,340000	47,335000
2,741649	188,932452	50,592	-0,029425	22,340000	47,335000
2,742322	189,582693	50,643	-0,029160	22,340000	47,335000
2,743035	189,712262	50,693	-0,029107	22,340000	47,335000
2,743739	190,232935	50,744	-0,028896	22,340000	47,335000
2,744482	189,712262	50,794	-0,029107	22,340000	47,335000
2,745166	190,753609	50,844	-0,028684	22,340000	47,335000
2,745818	190,883177	50,895	-0,028631	22,340000	47,335000
2,746556	191,273082	50,945	-0,028472	22,340000	47,335000
2,747254	191,858540	50,995	-0,028234	22,340000	47,335000
2,747985	191,208298	51,045	-0,028499	22,340000	47,335000
2,748643	191,727772	51,095	-0,028287	22,340000	47,335000
2,749325	191,988108	51,145	-0,028181	22,340000	47,335000
2,750101	192,573566	51,195	-0,027943	22,340000	47,335000
2,750092	192,833903	51,245	-0,027837	22,340000	47,335000
2,750027	192,443998	51,295	-0,027996	22,340000	47,335000
2,750047	191,988108	51,345	-0,028181	22,340000	47,335000
2,750076	191,988108	51,395	-0,028181	22,340000	47,335000
2,750069	192,703135	51,446	-0,027890	22,340000	47,335000
2,750044	192,573566	51,497	-0,027943	22,340000	47,335000
2,750085	191,662988	51,547	-0,028313	22,340000	47,335000
2,750039	191,468635	51,598	-0,028393	22,340000	47,335000
2,750058	191,598203	51,648	-0,028340	22,340000	47,335000
2,750104	191,598203	51,701	-0,028340	22,340000	47,335000
2,750005	191,793756	51,752	-0,028260	22,340000	47,335000
2,750121	192,508782	51,802	-0,027969	22,340000	47,335000
2,750071	191,793756	51,852	-0,028260	22,340000	47,335000
2,750045	191,403851	51,902	-0,028419	22,340000	47,335000
2,749989	191,143514	51,971	-0,028525	22,340000	47,335000
2,750043	191,923324	52,021	-0,028208	22,340000	47,335000
2,750058	191,337867	52,072	-0,028446	22,340000	47,335000
2,750011	190,883177	52,122	-0,028631	22,340000	47,335000
2,750064	190,558056	52,172	-0,028763	22,340000	47,335000
2,750021	191,013945	52,222	-0,028578	22,340000	47,335000
2,750060	191,273082	52,272	-0,028472	22,340000	47,335000
2,750046	190,622841	52,323	-0,028737	22,340000	47,335000
2,750061	191,143514	52,373	-0,028525	22,340000	47,335000
2,750060	190,753609	52,424	-0,028684	22,340000	47,335000
2,750068	190,103367	52,474	-0,028948	22,340000	47,335000
2,750047	190,947961	52,531	-0,028604	22,340000	47,335000
2,750041	189,843030	52,582	-0,029054	22,340000	47,335000
2,750091	190,103367	52,632	-0,028948	22,340000	47,335000
2,750030	190,622841	52,682	-0,028737	22,340000	47,335000
2,750067	190,037383	52,733	-0,028975	22,340000	47,335000
2,750048	190,232935	52,783	-0,028896	22,340000	47,335000
2,750051	189,712262	52,833	-0,029107	22,340000	47,335000
2,749981	190,753609	52,883	-0,028684	22,340000	47,335000
2,750064	189,778246	52,933	-0,029081	22,340000	47,335000
2,750076	189,582693	52,984	-0,029160	22,340000	47,335000
2,750000	189,778246	53,038	-0,029081	22,340000	47,335000
2,750091	189,647478	53,089	-0,029134	22,340000	47,335000
2,750056	189,647478	53,139	-0,029134	22,340000	47,335000
2,750043	189,582693	53,190	-0,029160	22,340000	47,335000
2,750058	189,843030	53,240	-0,029054	22,340000	47,335000
2,750050	189,972599	53,290	-0,029001	22,340000	47,335000
2,750056	189,453125	53,340	-0,029213	22,340000	47,335000
2,750096	189,453125	53,391	-0,029213	22,340000	47,335000
2,750005	189,712262	53,442	-0,029107	22,340000	47,350000
2,750122	189,712262	53,492	-0,029107	22,340000	47,350000
2,750043	190,297720	53,542	-0,028869	22,340000	47,350000
2,750039	190,103367	53,592	-0,028948	22,340000	47,350000
2,750131	189,972599	53,642	-0,029001	22,340000	47,350000
2,750039	189,778246	53,692	-0,029081	22,340000	47,350000
2,750048	188,932452	53,742	-0,029425	22,340000	47,350000
2,750056	189,647478	53,792	-0,029134	22,340000	47,350000
2,750044	189,257573	53,842	-0,029292	22,340000	47,350000
2,750013	189,517909	53,892	-0,029187	22,340000	47,350000
2,750083	189,778246	53,942	-0,029081	22,340000	47,350000
2,750077	189,517909	53,993	-0,029187	22,340000	47,350000
2,750058	189,778246	54,044	-0,029081	22,340000	47,350000
2,750037	189,778246	54,104	-0,029081	22,340000	47,350000
2,750040	189,517909	54,154	-0,029187	22,340000	47,350000
2,750002	189,907814	54,205	-0,029028	22,340000	47,350000
2,750069	189,388341	54,255	-0,029239	22,340000	47,350000
2,750028	189,388341	54,305	-0,029239	22,340000	47,350000
2,750088	189,257573	54,355	-0,029292	22,340000	47,350000
2,750031	188,217426	54,405	-0,029716	22,340000	47,350000
2,750077	189,517909	54,455	-0,029187	22,340000	47,350000
2,750041	189,388341	54,509	-0,029239	22,340000	47,350000
2,749999	189,972599	54,559	-0,029001	22,340000	47,350000
2,750041	188,738099	54,609	-0,029504	22,340000	47,350000
2,750055	189,062020	54,659	-0,029372	22,340000	47,350000
2,750134	189,388341	54,709	-0,029239	22,340000	47,350000
2,750070	189,062020	54,759	-0,029372	22,340000	47,350000
2,750043	189,322357	54,809	-0,029266	22,340000	47,350000
2,750060	188,997236	54,859	-0,029398	22,340000	47,350000
2,750057	188,217426	54,912	-0,029716	22,340000	47,350000
2,750004	189,128004	54,962	-0,029345	22,340000	47,350000
2,750030	189,257573	55,013	-0,029292	22,340000	47,350000
2,750023	188,672115	55,063	-0,029531	22,340000	47,350000
2,749996	188,607331	55,113	-0,029557	22,340000	47,350000
2,750067	188,348194	55,163	-0,029663	22,340000	47,350000
2,750049	189,388341	55,213	-0,029239	22,340000	47,350000
2,750021	188,542546	55,263	-0,029583	22,340000	47,350000
2,750064	188,217426	55,347	-0,029716	22,340000	47,350000
2,750093	188,997236	55,397	-0,029398	22,340000	47,350000
2,750101	187,957089	55,447	-0,029822	22,350000	47,350000
2,750091	188,477762	55,497	-0,029610	22,350000	47,350000
2,750025	188,412978	55,562	-0,029636	22,350000	47,350000
2,750021	188,021873	55,619	-0,029795	22,350000	47,350000
2,750055	187,892305	55,670	-0,029848	22,350000	47,350000
2,749987	188,412978	55,720	-0,029636	22,350000	47,350000
2,750099	189,128004	55,771	-0,029345	22,350000	47,350000
2,750045	188,672115	55,821	-0,029531	22,350000	47,350000
2,750044	187,957089	55,871	-0,029822	22,350000	47,350000
2,750090	188,738099	55,921	-0,029504	22,350000	47,350000
2,750057	187,892305	55,972	-0,029848	22,350000	47,350000
2,750063	187,631968	56,022	-0,029954	22,350000	47,350000
2,750058	188,217426	56,072	-0,029716	22,350000	47,350000
2,750056	187,762736	56,122	-0,029901	22,350000	47,350000
2,750101	188,087857	56,172	-0,029769	22,350000	47,350000
2,750047	188,021873	56,222	-0,029795	22,350000	47,350000
2,750052	188,477762	56,272	-0,029610	22,350000	47,350000
2,750076	187,892305	56,322	-0,029848	22,350000	47,350000
2,750050	188,087857	56,372	-0,029769	22,350000	47,350000
2,750003	188,087857	56,426	-0,029769	22,350000	47,350000
2,750033	188,217426	56,477	-0,029716	22,350000	47,350000
2,750100	187,957089	56,535	-0,029822	22,350000	47,350000
2,750095	187,892305	56,585	-0,029848	22,350000	47,350000
2,750056	188,348194	56,635	-0,029663	22,350000	47,350000
2,750080	188,217426	56,685	-0,029716	22,350000	47,350000
2,750028	188,348194	56,736	-0,029663	22,350000	47,350000
2,750056	188,376987	56,787	-0,029651	22,350000	47,350000
2,750050	188,217426	56,838	-0,029716	22,350000	47,350000
2,750037	187,372831	56,888	-0,030060	22,350000	47,350000
2,750090	188,282210	56,949	-0,029689	22,350000	47,350000
2,750046	187,567184	57,000	-0,029980	22,350000	47,350000
2,750051	187,762736	57,050	-0,029901	22,350000	47,350000
2,750047	188,348194	57,100	-0,029663	22,350000	47,350000
2,750069	187,112494	57,150	-0,030166	22,350000	47,350000
2,750016	187,697952	57,201	-0,029927	22,350000	47,350000
2,750042	187,372831	57,252	-0,030060	22,350000	47,350000
2,750051	187,827520	57,307	-0,029875	22,350000	47,350000
2,750014	187,631968	57,358	-0,029954	22,350000	47,350000
2,750039	187,502399	57,408	-0,030007	22,350000	47,350000
2,750064	186,981726	57,458	-0,030219	22,350000	47,350000
2,750078	187,306847	57,508	-0,030086	22,350000	47,350000
2,750076	187,372831	57,559	-0,030060	22,350000	47,350000
2,750007	187,372831	57,609	-0,030060	22,350000	47,350000
2,750059	186,916942	57,659	-0,030245	22,350000	47,350000
2,750018	187,242063	57,728	-0,030113	22,350000	47,350000
2,750053	187,827520	57,778	-0,029875	22,350000	47,350000
2,750080	187,631968	57,828	-0,029954	22,350000	47,350000
2,750086	187,306847	57,878	-0,030086	22,350000	47,350000
2,750033	187,697952	57,928	-0,029927	22,350000	47,350000
2,750025	187,762736	57,979	-0,029901	22,350000	47,350000
2,750075	188,021873	58,030	-0,029795	22,350000	47,350000
2,750067	187,306847	58,092	-0,030086	22,350000	47,350000
2,750056	186,981726	58,149	-0,030219	22,350000	47,350000
2,750120	188,152641	58,199	-0,029742	22,350000	47,350000
2,750088	186,462252	58,250	-0,030430	22,350000	47,350000
2,750035	187,177278	58,300	-0,030139	22,350000	47,350000
2,750017	187,242063	58,351	-0,030113	22,350000	47,350000
2,750089	187,697952	58,401	-0,029927	22,350000	47,350000
2,750032	187,112494	58,451	-0,030166	22,350000	47,350000
2,750052	187,697952	58,502	-0,029927	22,350000	47,350000
2,750054	187,567184	58,552	-0,029980	22,350000	47,350000
2,750120	186,852158	58,602	-0,030271	22,350000	47,350000
2,750068	187,892305	58,652	-0,029848	22,350000	47,350000
2,750018	187,372831	58,702	-0,030060	22,350000	47,350000
2,750084	187,047710	58,752	-0,030192	22,350000	47,350000
2,750022	186,787373	58,802	-0,030298	22,350000	47,350000
2,750032	187,372831	58,852	-0,030060	22,350000	47,350000
2,750138	187,047710	58,902	-0,030192	22,350000	47,350000
2,750015	187,567184	58,958	-0,029980	22,350000	47,350000
2,750061	186,656605	59,008	-0,030351	22,350000	47,350000
2,750075	187,242063	59,059	-0,030113	22,350000	47,350000
2,750044	187,372831	59,109	-0,030060	22,350000	47,350000
2,750064	187,827520	59,160	-0,029875	22,350000	47,350000
2,750088	187,242063	59,210	-0,030113	22,350000	47,350000
2,750020	187,502399	59,260	-0,030007	22,350000	47,350000
2,749994	187,437615	59,321	-0,030033	22,350000	47,350000
2,750117	186,981726	59,371	-0,030219	22,350000	47,350000
2,750060	186,787373	59,422	-0,030298	22,350000	47,335000
2,750033	187,242063	59,472	-0,030113	22,350000	47,335000
2,750049	186,787373	59,522	-0,030298	22,350000	47,335000
2,750021	186,787373	59,572	-0,030298	22,350000	47,335000
2,750030	186,852158	59,622	-0,030271	22,350000	47,335000
2,750071	186,852158	59,672	-0,030271	22,350000	47,335000
2,750006	187,567184	59,722	-0,029980	22,350000	47,335000
2,750046	187,112494	59,776	-0,030166	22,350000	47,335000
2,750034	186,722589	59,827	-0,030324	22,350000	47,335000
2,750038	186,332684	59,877	-0,030483	22,350000	47,335000
2,750071	186,722589	59,928	-0,030324	22,350000	47,335000
2,750069	186,852158	59,979	-0,030271	22,350000	47,335000
2,750069	186,722589	60,029	-0,030324	22,350000	47,335000
2,750041	187,112494	60,079	-0,030166	22,350000	47,335000
2,750102	187,177278	60,129	-0,030139	22,350000	47,335000
2,750039	186,591821	60,179	-0,030377	22,350000	47,335000
2,750166	186,916942	60,230	-0,030245	22,350000	47,335000
2,750091	186,722589	60,280	-0,030324	22,350000	47,335000
2,750070	186,722589	60,331	-0,030324	22,350000	47,335000
2,750055	186,656605	60,381	-0,030351	22,350000	47,335000
2,750009	186,462252	60,432	-0,030430	22,350000	47,335000
2,750078	186,006363	60,482	-0,030616	22,350000	47,335000
2,750024	186,462252	60,551	-0,030430	22,350000	47,335000
2,750042	186,527037	60,601	-0,030404	22,350000	47,335000
2,750045	186,266700	60,651	-0,030510	22,350000	47,335000
2,750073	186,462252	60,702	-0,030430	22,350000	47,335000
2,750088	186,591821	60,752	-0,030377	22,350000	47,335000
2,750066	186,397468	60,803	-0,030457	22,350000	47,335000
2,750048	186,201916	60,853	-0,030536	22,350000	47,335000
2,750032	186,137131	60,919	-0,030562	22,350000	47,335000
2,750095	186,852158	60,970	-0,030271	22,350000	47,335000
2,750044	186,332684	61,020	-0,030483	22,350000	47,335000
2,750086	186,656605	61,070	-0,030351	22,350000	47,335000
2,750043	185,876795	61,120	-0,030668	22,350000	47,335000
2,750078	186,462252	61,170	-0,030430	22,350000	47,335000
2,750040	186,852158	61,220	-0,030271	22,350000	47,335000
2,750053	186,656605	61,270	-0,030351	22,350000	47,335000
2,750014	186,722589	61,320	-0,030324	22,350000	47,335000
2,750069	186,462252	61,370	-0,030430	22,350000	47,335000
2,750016	186,722589	61,420	-0,030324	22,340000	47,350000
2,750095	187,112494	61,471	-0,030166	22,340000	47,350000
2,749351	186,137131	61,521	-0,030562	22,340000	47,350000
2,748636	185,486890	61,571	-0,030827	22,340000	47,350000
2,747984	185,096984	61,622	-0,030986	22,340000	47,350000
2,747246	184,446743	61,673	-0,031250	22,340000	47,350000
2,746583	184,836648	61,723	-0,031092	22,340000	47,350000
2,745841	183,992053	61,773	-0,031436	22,340000	47,350000
2,745156	183,600948	61,824	-0,031595	22,340000	47,350000
2,744475	182,691569	61,874	-0,031965	22,340000	47,350000
2,743789	182,106112	61,924	-0,032203	22,340000	47,350000
2,743100	182,106112	61,975	-0,032203	22,340000	47,350000
2,742366	182,626785	62,025	-0,031991	22,340000	47,350000
2,741631	181,455870	62,075	-0,032468	22,340000	47,350000
2,740872	181,065965	62,126	-0,032626	22,340000	47,350000
2,740283	181,391086	62,176	-0,032494	22,340000	47,350000
2,739555	180,545291	62,226	-0,032838	22,340000	47,350000
2,738893	179,505144	62,280	-0,033262	22,340000	47,350000
2,738135	179,830265	62,335	-0,033129	22,340000	47,350000
2,737443	180,090602	62,385	-0,033023	22,340000	47,350000
2,736764	179,310792	62,436	-0,033341	22,340000	47,350000
2,736027	178,790118	62,488	-0,033553	22,340000	47,350000
2,735312	177,879540	62,538	-0,033923	22,340000	47,350000
2,734680	177,945524	62,589	-0,033896	22,340000	47,350000
2,733924	176,970161	62,639	-0,034293	22,340000	47,350000
2,733238	177,424850	62,689	-0,034108	22,340000	47,350000
2,732521	175,865230	62,739	-0,034743	22,340000	47,350000
2,731847	176,384703	62,789	-0,034532	22,340000	47,350000
2,731150	175,669677	62,839	-0,034823	22,340000	47,350000
2,730469	176,059582	62,889	-0,034664	22,340000	47,350000
2,729726	175,930014	62,939	-0,034717	22,340000	47,350000
2,729046	174,954651	62,989	-0,035114	22,340000	47,350000
2,728352	174,823883	63,044	-0,035167	22,340000	47,350000
2,727694	173,914504	63,094	-0,035537	22,340000	47,350000
2,726904	173,264262	63,145	-0,035802	22,340000	47,350000
2,726280	173,589383	63,202	-0,035669	22,340000	47,350000
2,725557	172,874357	63,252	-0,035960	22,340000	47,350000
2,724881	172,353684	63,302	-0,036172	22,340000	47,350000
2,724147	172,678805	63,355	-0,036040	22,340000	47,350000
2,723459	171,963778	63,405	-0,036331	22,340000	47,350000
2,722719	172,028563	63,455	-0,036305	22,340000	47,350000
2,722048	171,378321	63,505	-0,036569	22,340000	47,350000
2,721377	170,858847	63,555	-0,036781	22,340000	47,350000
2,720604	170,468942	63,605	-0,036939	22,340000	47,350000
2,719983	169,948269	63,655	-0,037151	22,340000	47,350000
2,719299	169,168458	63,715	-0,037469	22,340000	47,350000
2,718540	168,972906	63,765	-0,037548	22,340000	47,350000
2,717849	169,233242	63,816	-0,037442	22,340000	47,350000
2,717130	168,778553	63,866	-0,037627	22,340000	47,350000
2,716492	168,647785	63,916	-0,037681	22,340000	47,350000
2,715767	167,738406	63,966	-0,038051	22,340000	47,350000
2,715041	167,217733	64,016	-0,038263	22,340000	47,350000
2,714335	167,088164	64,066	-0,038315	22,340000	47,350000
2,713648	167,022180	64,116	-0,038342	22,340000	47,350000
2,712974	167,217733	64,166	-0,038263	22,340000	47,350000
2,712275	166,373138	64,216	-0,038606	22,340000	47,350000
2,711570	165,656912	64,267	-0,038898	22,340000	47,350000
2,710892	165,202223	64,317	-0,039083	22,340000	47,350000
2,710176	164,357628	64,382	-0,039427	22,340000	47,350000
2,709481	164,031308	64,432	-0,039560	22,340000	47,350000
2,708739	163,772171	64,483	-0,039665	22,340000	47,350000
2,708035	164,162076	64,533	-0,039506	22,340000	47,350000
2,707380	163,447050	64,583	-0,039797	22,340000	47,350000
2,706690	163,317481	64,634	-0,039850	22,340000	47,350000
2,705963	162,276134	64,684	-0,040274	22,340000	47,350000
2,705274	162,667239	64,734	-0,040115	22,340000	47,350000
2,704560	162,081782	64,784	-0,040353	22,340000	47,350000
2,703845	161,951014	64,834	-0,040406	22,340000	47,350000
2,703147	162,016997	64,884	-0,040379	22,340000	47,350000
2,702498	160,975651	64,935	-0,040803	22,340000	47,350000
2,701801	160,585746	64,985	-0,040962	22,340000	47,350000
2,701112	160,326609	65,035	-0,041067	22,340000	47,350000
2,700343	159,480814	65,086	-0,041412	22,340000	47,350000
2,699654	159,090909	65,137	-0,041570	22,340000	47,350000
2,698979	159,155693	65,188	-0,041544	22,340000	47,350000
2,698255	158,961341	65,238	-0,041623	22,340000	47,350000
2,697553	159,155693	65,288	-0,041544	22,340000	47,350000
2,696900	158,311099	65,357	-0,041888	22,340000	47,350000
2,696133	158,570236	65,407	-0,041782	22,340000	47,350000
2,695500	157,725641	65,458	-0,042126	22,340000	47,350000
2,694748	157,206167	65,509	-0,042337	22,340000	47,350000
2,694092	157,270952	65,559	-0,042311	22,340000	47,350000
2,693360	156,230805	65,610	-0,042734	22,340000	47,350000
2,692655	155,710131	65,660	-0,042946	22,340000	47,350000
2,691974	155,774916	65,727	-0,042920	22,340000	47,350000
2,691281	155,839700	65,778	-0,042894	22,340000	47,350000
2,690611	156,295589	65,828	-0,042708	22,340000	47,350000
2,689817	155,124674	65,878	-0,043185	22,340000	47,350000
2,689227	154,995105	65,929	-0,043237	22,340000	47,350000
2,688461	155,059889	65,980	-0,043211	22,340000	47,350000
2,687752	153,694621	66,030	-0,043767	22,340000	47,350000
2,687054	153,499069	66,080	-0,043846	22,340000	47,350000
2,686359	153,304716	66,148	-0,043925	22,340000	47,350000
2,685645	152,135001	66,199	-0,044401	22,340000	47,350000
2,684948	153,175148	66,249	-0,043978	22,340000	47,350000
2,684277	152,329354	66,299	-0,044322	22,340000	47,350000
2,683571	152,719259	66,349	-0,044164	22,340000	47,350000
2,682912	151,743896	66,399	-0,044561	22,340000	47,350000
2,682160	151,549543	66,450	-0,044640	22,340000	47,350000
2,681503	150,768533	66,501	-0,044958	22,340000	47,350000
2,680791	150,313844	66,553	-0,045143	22,340000	47,350000
2,680051	150,313844	66,603	-0,045143	22,340000	47,350000
2,679354	149,793170	66,653	-0,045354	22,340000	47,350000
2,678627	149,793170	66,703	-0,045354	22,340000	47,350000
2,677987	149,273697	66,753	-0,045566	22,340000	47,350000
2,677262	148,819007	66,804	-0,045751	22,340000	47,350000
2,676599	148,298334	66,854	-0,045963	22,340000	47,350000
2,675862	147,648092	66,904	-0,046228	22,340000	47,350000
2,675138	147,518523	66,955	-0,046280	22,340000	47,350000
2,674467	146,543161	67,006	-0,046677	22,340000	47,350000
2,673825	146,478376	67,057	-0,046704	22,340000	47,350000
2,673073	146,087272	67,107	-0,046863	22,340000	47,350000
2,672370	145,828135	67,157	-0,046968	22,340000	47,350000
2,671618	146,282824	67,207	-0,046783	22,340000	47,350000
2,671032	145,828135	67,257	-0,046968	22,340000	47,350000
2,670285	145,373445	67,326	-0,047153	22,340000	47,350000
2,669523	144,137746	67,376	-0,047656	22,340000	47,350000
2,668843	144,787988	67,427	-0,047392	22,340000	47,350000
2,668138	144,398082	67,477	-0,047550	22,340000	47,350000
2,667504	143,487504	67,527	-0,047921	22,340000	47,350000
2,666748	143,617072	67,577	-0,047868	22,340000	47,350000
2,666026	142,902046	67,627	-0,048159	22,340000	47,350000
2,665371	142,966830	67,677	-0,048133	22,340000	47,350000
2,664662	141,471994	67,728	-0,048741	22,340000	47,350000
2,663957	142,772478	67,778	-0,048212	22,340000	47,350000
2,663243	141,471994	67,828	-0,048741	22,340000	47,350000
2,662542	141,342426	67,879	-0,048794	22,340000	47,350000
2,661878	140,106726	67,929	-0,049297	22,340000	47,350000
2,661189	140,106726	67,979	-0,049297	22,340000	47,350000
2,660443	139,911174	68,029	-0,049376	22,340000	47,350000
2,659792	139,521268	68,079	-0,049535	22,340000	47,350000
2,659085	138,871027	68,129	-0,049800	22,340000	47,350000
2,658375	138,545906	68,179	-0,049932	22,340000	47,350000
2,657692	138,220785	68,233	-0,050064	22,340000	47,350000
2,657008	138,545906	68,284	-0,049932	22,340000	47,350000
2,656283	138,351553	68,335	-0,050011	22,340000	47,350000
2,655586	137,766095	68,386	-0,050250	22,340000	47,350000
2,654866	137,766095	68,437	-0,050250	22,340000	47,350000
2,654125	137,376190	68,487	-0,050408	22,340000	47,350000
2,653474	137,115853	68,537	-0,050514	22,340000	47,350000
2,652776	135,815370	68,588	-0,051043	22,340000	47,350000
2,652060	136,010922	68,638	-0,050964	22,340000	47,350000
2,651329	134,904791	68,688	-0,051414	22,340000	47,350000
2,650695	134,775223	68,739	-0,051467	22,340000	47,350000
2,649964	134,841207	68,789	-0,051440	22,340000	47,350000
2,649293	134,124981	68,839	-0,051731	22,340000	47,350000
2,648549	133,930628	68,889	-0,051811	22,340000	47,350000
2,647982	133,345170	68,952	-0,052049	22,340000	47,350000
2,647174	134,060197	69,003	-0,051758	22,340000	47,350000
2,646489	132,694929	69,053	-0,052313	22,340000	47,350000
2,645786	132,434592	69,104	-0,052419	22,340000	47,350000
2,645092	132,499376	69,155	-0,052393	22,340000	47,350000
2,644362	131,069324	69,206	-0,052975	22,340000	47,350000
2,643695	131,719566	69,256	-0,052710	22,340000	47,350000
2,642947	131,525213	69,316	-0,052790	22,340000	47,350000
2,642249	130,808987	69,366	-0,053081	22,340000	47,350000
2,641530	130,483866	69,417	-0,053213	22,340000	47,350000
2,640882	130,093961	69,467	-0,053372	22,350000	47,335000
2,640165	130,483866	69,517	-0,053213	22,350000	47,335000
2,639485	129,314151	69,568	-0,053689	22,350000	47,335000
2,638784	129,119798	69,618	-0,053769	22,350000	47,335000
2,638078	129,443719	69,669	-0,053637	22,350000	47,335000
2,637410	128,859461	69,722	-0,053875	22,350000	47,335000
2,636692	128,728693	69,773	-0,053928	22,350000	47,335000
2,635999	128,599125	69,824	-0,053980	22,350000	47,335000
2,635283	128,144435	69,875	-0,054166	22,350000	47,335000
2,634638	127,623762	69,926	-0,054377	22,350000	47,335000
2,633898	127,623762	69,976	-0,054377	22,350000	47,335000
2,633208	127,167873	70,027	-0,054563	22,350000	47,335000
2,632464	126,713183	70,077	-0,054748	22,350000	47,335000
2,631744	126,583615	70,128	-0,054801	22,350000	47,335000
2,631060	125,543468	70,178	-0,055224	22,350000	47,335000
2,630393	125,347915	70,229	-0,055304	22,350000	47,335000
2,629682	125,088778	70,279	-0,055409	22,350000	47,335000
2,628954	125,543468	70,330	-0,055224	22,350000	47,335000
2,628347	124,503321	70,380	-0,055647	22,350000	47,335000
2,627571	124,632889	70,431	-0,055595	22,350000	47,335000
2,626834	124,178200	70,481	-0,055780	22,350000	47,335000
2,626199	123,463174	70,531	-0,056071	22,350000	47,335000
2,625463	124,048631	70,582	-0,055833	22,350000	47,335000
2,624829	123,202837	70,632	-0,056177	22,350000	47,335000
2,624066	122,357043	70,682	-0,056521	22,350000	47,335000
2,623386	122,357043	70,732	-0,056521	22,350000	47,335000
2,622671	122,227474	70,782	-0,056574	22,350000	47,335000
2,621903	121,577232	70,832	-0,056838	22,350000	47,335000
2,621234	120,797422	70,882	-0,057156	22,350000	47,335000
2,620561	120,276749	70,932	-0,057368	22,350000	47,335000
2,619849	120,862206	70,983	-0,057129	22,350000	47,335000
2,619190	119,822059	71,033	-0,057553	22,350000	47,335000
2,618478	119,822059	71,084	-0,057553	22,350000	47,335000
2,617741	118,521576	71,134	-0,058082	22,350000	47,335000
2,617071	118,846696	71,184	-0,057950	22,350000	47,335000
2,616327	117,937318	71,235	-0,058320	22,350000	47,335000
2,615680	118,586360	71,286	-0,058056	22,350000	47,335000
2,614946	118,196455	71,336	-0,058214	22,350000	47,335000
2,614294	117,871334	71,386	-0,058347	22,350000	47,335000
2,613590	117,610997	71,436	-0,058453	22,340000	47,335000
2,612851	117,806549	71,487	-0,058373	22,340000	47,335000
2,612167	117,351860	71,537	-0,058558	22,340000	47,335000
2,611433	117,287076	71,587	-0,058584	22,340000	47,335000
2,610742	115,921808	71,642	-0,059140	22,340000	47,335000
2,610050	115,661471	71,714	-0,059246	22,340000	47,335000
2,609441	115,205582	71,764	-0,059432	22,340000	47,335000
2,608728	115,011229	71,814	-0,059511	22,340000	47,335000
2,608004	114,425772	71,864	-0,059749	22,340000	47,335000
2,607272	114,490556	71,915	-0,059723	22,340000	47,335000
2,606571	113,515193	71,965	-0,060120	22,340000	47,335000
2,605885	113,905098	72,016	-0,059961	22,340000	47,335000
2,605199	113,450409	72,066	-0,060146	22,340000	47,335000
2,604487	113,256056	72,120	-0,060225	22,340000	47,335000
2,603794	112,149925	72,171	-0,060675	22,340000	47,335000
2,603109	112,149925	72,222	-0,060675	22,340000	47,335000
2,602428	112,085141	72,272	-0,060702	22,340000	47,335000
2,601674	111,499683	72,322	-0,060940	22,340000	47,335000
2,601001	111,565667	72,372	-0,060913	22,340000	47,335000
2,600260	110,980210	72,423	-0,061151	22,340000	47,335000
2,599597	110,784657	72,474	-0,061231	22,340000	47,335000
2,598842	110,655089	72,529	-0,061284	22,340000	47,335000
2,598200	110,200399	72,580	-0,061469	22,340000	47,335000
2,597441	109,744510	72,631	-0,061654	22,340000	47,335000
2,596791	109,160252	72,681	-0,061892	22,340000	47,335000
2,596110	109,874079	72,731	-0,061602	22,340000	47,335000
2,595340	109,874079	72,787	-0,061602	22,340000	47,335000
2,594702	108,314458	72,837	-0,062236	22,340000	47,335000
2,593951	107,793785	72,888	-0,062448	22,340000	47,335000
2,593269	107,858569	72,938	-0,062422	22,340000	47,335000
2,592574	107,924553	72,989	-0,062395	22,340000	47,335000
2,591894	107,013974	73,039	-0,062766	22,340000	47,335000
2,591151	106,818422	73,089	-0,062845	22,340000	47,335000
2,590542	106,559285	73,139	-0,062951	22,340000	47,335000
2,589820	105,258801	73,190	-0,063480	22,340000	47,335000
2,589093	105,713490	73,240	-0,063295	22,340000	47,335000
2,588394	104,673343	73,302	-0,063718	22,340000	47,335000
2,587644	105,388370	73,352	-0,063427	22,340000	47,335000
2,586970	104,802912	73,403	-0,063666	22,340000	47,335000
2,586263	103,762765	73,454	-0,064089	22,340000	47,320000
2,585565	103,697981	73,511	-0,064115	22,340000	47,320000
2,584907	103,438844	73,561	-0,064221	22,340000	47,320000
2,584195	104,478991	73,612	-0,063797	22,340000	47,320000
2,583465	102,657834	73,663	-0,064539	22,340000	47,320000
2,582758	101,747255	73,713	-0,064909	22,340000	47,320000
2,582073	102,203144	73,764	-0,064724	22,340000	47,320000
2,581402	101,033429	73,815	-0,065200	22,340000	47,320000
2,580695	101,813239	73,866	-0,064882	22,340000	47,320000
2,579950	102,073576	73,917	-0,064776	22,340000	47,320000
2,579288	101,162997	73,970	-0,065147	22,340000	47,320000
2,578607	100,447971	74,020	-0,065438	22,340000	47,320000
2,577877	99,732945	74,070	-0,065729	22,340000	47,320000
2,577212	100,447971	74,131	-0,065438	22,340000	47,320000
2,576478	100,058066	74,182	-0,065597	22,340000	47,320000
2,575759	99,732945	74,232	-0,065729	22,340000	47,320000
2,575058	99,147487	74,283	-0,065967	22,340000	47,320000
2,574350	98,497245	74,333	-0,066232	22,340000	47,320000
2,573655	99,212272	74,383	-0,065941	22,340000	47,320000
2,573043	98,172125	74,433	-0,066364	22,340000	47,320000
2,572292	97,326330	74,483	-0,066708	22,340000	47,320000
2,571567	97,067193	74,535	-0,066814	22,340000	47,320000
2,570913	97,131978	74,585	-0,066788	22,340000	47,320000
2,570191	96,481736	74,636	-0,067052	22,340000	47,320000
2,569468	96,481736	74,686	-0,067052	22,340000	47,320000
2,568789	96,416951	74,738	-0,067079	22,340000	47,320000
2,568093	96,091830	74,789	-0,067211	22,340000	47,320000
2,567351	94,726562	74,839	-0,067767	22,340000	47,320000
2,566652	95,051683	74,890	-0,067634	22,340000	47,320000
2,565999	94,726562	74,942	-0,067767	22,340000	47,320000
2,565249	94,076321	74,992	-0,068031	22,340000	47,320000
2,564503	93,880768	75,044	-0,068111	22,340000	47,320000
2,563850	93,296510	75,094	-0,068349	22,340000	47,320000
2,563177	93,815984	75,145	-0,068137	22,340000	47,320000
2,562456	93,230526	75,196	-0,068375	22,340000	47,320000
2,561778	93,100958	75,246	-0,068428	22,340000	47,320000
2,561065	91,930043	75,296	-0,068905	22,340000	47,320000
2,560362	91,670906	75,347	-0,069010	22,340000	47,320000
2,559678	91,606121	75,397	-0,069037	22,340000	47,320000
2,558987	90,695543	75,447	-0,069407	22,350000	47,320000
2,558323	90,370422	75,497	-0,069540	22,350000	47,320000
2,557540	90,174869	75,547	-0,069619	22,350000	47,320000
2,556886	90,630759	75,598	-0,069434	22,350000	47,320000
2,556179	89,524628	75,648	-0,069884	22,350000	47,320000
2,555460	89,524628	75,698	-0,069884	22,350000	47,320000
2,554760	88,940370	75,767	-0,070122	22,350000	47,320000
2,554112	88,874386	75,818	-0,070148	22,350000	47,320000
2,553350	88,744817	75,869	-0,070201	22,350000	47,320000
2,552717	88,419696	75,919	-0,070333	22,350000	47,320000
2,552011	87,575102	75,969	-0,070677	22,350000	47,320000
2,551278	87,379549	76,019	-0,070757	22,350000	47,320000
2,550613	86,989644	76,069	-0,070916	22,350000	47,320000
2,549896	86,794092	76,136	-0,070995	22,350000	47,320000
2,549196	86,599739	76,186	-0,071074	22,350000	47,320000
2,548447	86,729307	76,237	-0,071021	22,350000	47,320000
2,547767	85,753945	76,288	-0,071418	22,350000	47,320000
2,547025	85,949497	76,339	-0,071339	22,350000	47,320000
2,546350	85,169687	76,389	-0,071656	22,350000	47,320000
2,545686	84,713798	76,439	-0,071842	22,350000	47,320000
2,544941	84,584229	76,489	-0,071895	22,350000	47,320000
2,544242	84,194324	76,540	-0,072053	22,350000	47,320000
2,543589	83,869203	76,590	-0,072186	22,350000	47,320000
2,542893	83,803219	76,640	-0,072212	22,350000	47,320000
2,542199	82,893840	76,690	-0,072583	22,350000	47,320000
2,541494	82,829056	76,742	-0,072609	22,350000	47,320000
2,540789	82,178814	76,792	-0,072874	22,350000	47,320000
2,540103	81,463788	76,842	-0,073165	22,350000	47,320000
2,539373	82,829056	76,904	-0,072609	22,350000	47,320000
2,538680	82,114030	76,954	-0,072900	22,350000	47,320000
2,537935	80,943115	77,005	-0,073376	22,350000	47,320000
2,537269	80,617994	77,055	-0,073509	22,350000	47,320000
2,536606	80,292873	77,105	-0,073641	22,350000	47,320000
2,535897	80,617994	77,156	-0,073509	22,350000	47,320000
2,535164	80,292873	77,207	-0,073641	22,350000	47,320000
2,534494	78,602484	77,258	-0,074329	22,350000	47,320000
2,533763	78,537700	77,334	-0,074355	22,350000	47,320000
2,533046	78,732052	77,385	-0,074276	22,350000	47,320000
2,532431	77,887458	77,435	-0,074620	22,350000	47,320000
2,531697	78,017026	77,485	-0,074567	22,350000	47,320000
2,530962	77,172432	77,536	-0,074911	22,350000	47,320000
2,530304	77,302000	77,586	-0,074858	22,350000	47,320000
2,529585	77,562337	77,642	-0,074752	22,350000	47,320000
2,528869	76,326637	77,693	-0,075255	22,350000	47,320000
2,528113	76,522190	77,743	-0,075176	22,350000	47,320000
2,527477	76,132285	77,793	-0,075334	22,350000	47,320000
2,526815	75,742379	77,843	-0,075493	22,350000	47,320000
2,526043	75,027353	77,893	-0,075784	22,350000	47,320000
2,525337	74,702232	77,943	-0,075917	22,350000	47,320000
2,524629	74,571464	77,993	-0,075970	22,350000	47,320000
2,523988	74,506680	78,044	-0,075996	22,350000	47,320000
2,523285	74,377111	78,094	-0,076049	22,350000	47,320000
2,522587	73,856438	78,153	-0,076261	22,350000	47,320000
2,521885	73,531317	78,203	-0,076393	22,350000	47,320000
2,521190	73,076628	78,253	-0,076578	22,350000	47,320000
2,520517	72,947059	78,304	-0,076631	22,350000	47,320000
2,519782	72,361602	78,355	-0,076869	22,350000	47,320000
2,519045	72,491170	78,405	-0,076816	22,350000	47,320000
2,518390	72,491170	78,459	-0,076816	22,350000	47,320000
2,517733	71,840928	78,518	-0,077081	22,350000	47,320000
2,516958	71,321455	78,568	-0,077292	22,350000	47,320000
2,516276	70,605229	78,618	-0,077584	22,350000	47,320000
2,515565	70,735997	78,669	-0,077531	22,350000	47,320000
2,514815	70,800781	78,727	-0,077504	22,350000	47,320000
2,514136	70,085755	78,778	-0,077795	22,350000	47,320000
2,513510	69,435513	78,829	-0,078060	22,350000	47,320000
2,512716	69,110392	78,879	-0,078192	22,350000	47,320000
2,512070	70,020971	78,930	-0,077822	22,350000	47,320000
2,511312	68,980824	78,980	-0,078245	22,350000	47,320000
2,510600	68,850056	79,031	-0,078298	22,350000	47,320000
2,509926	68,070245	79,081	-0,078616	22,350000	47,320000
2,509214	67,615556	79,132	-0,078801	22,350000	47,320000
2,508567	68,395366	79,182	-0,078483	22,350000	47,320000
2,507885	67,549572	79,232	-0,078828	22,350000	47,320000
2,507163	67,355219	79,283	-0,078907	22,350000	47,320000
2,506486	66,444641	79,341	-0,079277	22,350000	47,320000
2,505850	66,054735	79,392	-0,079436	22,350000	47,320000
2,505134	65,404494	79,442	-0,079701	22,340000	47,335000
2,504362	66,054735	79,492	-0,079436	22,340000	47,335000
2,503650	64,883820	79,546	-0,079913	22,340000	47,335000
2,502957	65,339709	79,596	-0,079727	22,340000	47,335000
2,502247	65,469278	79,646	-0,079674	22,340000	47,335000
2,501581	64,559899	79,696	-0,080044	22,340000	47,335000
2,500909	64,429131	79,752	-0,080098	22,340000	47,335000
2,500214	63,453768	79,802	-0,080495	22,340000	47,335000
2,499449	63,519752	79,852	-0,080468	22,340000	47,335000
2,498759	62,869510	79,902	-0,080732	22,340000	47,335000
2,498075	62,478405	79,952	-0,080892	22,340000	47,335000
2,497415	63,063863	80,002	-0,080653	22,340000	47,335000
2,496707	62,219268	80,054	-0,080997	22,340000	47,335000
2,496038	62,219268	80,104	-0,080997	22,340000	47,335000
2,495288	60,462895	80,158	-0,081712	22,340000	47,335000
2,494554	60,528879	80,208	-0,081685	22,340000	47,335000
2,493855	60,333327	80,258	-0,081765	22,340000	47,335000
2,493119	60,528879	80,308	-0,081685	22,340000	47,335000
2,492513	59,749069	80,367	-0,082002	22,340000	47,335000
2,491742	59,878638	80,417	-0,081950	22,340000	47,335000
2,491094	59,488732	80,468	-0,082108	22,340000	47,335000
2,490372	59,032843	80,530	-0,082294	22,340000	47,335000
2,489633	58,968059	80,580	-0,082320	22,340000	47,335000
2,488971	58,513370	80,631	-0,082505	22,340000	47,335000
2,488307	58,057480	80,681	-0,082691	22,340000	47,335000
2,487582	57,863128	80,732	-0,082770	22,340000	47,335000
2,486849	57,017333	80,782	-0,083114	22,340000	47,335000
2,486203	57,473223	80,832	-0,082929	22,340000	47,335000
2,485499	56,627428	80,882	-0,083273	22,340000	47,335000
2,484767	57,212886	80,932	-0,083035	22,340000	47,335000
2,484114	55,716850	80,982	-0,083644	22,340000	47,335000
2,483378	55,392928	81,032	-0,083775	22,340000	47,335000
2,482648	54,807471	81,082	-0,084014	22,340000	47,335000
2,481995	55,067808	81,136	-0,083908	22,340000	47,335000
2,481254	54,092445	81,186	-0,084305	22,340000	47,335000
2,480544	54,417566	81,236	-0,084172	22,340000	47,335000
2,479931	54,351582	81,287	-0,084199	22,340000	47,335000
2,479168	54,482350	81,359	-0,084146	22,340000	47,335000
2,478509	53,442203	81,409	-0,084569	22,340000	47,335000
2,477749	52,791961	81,460	-0,084834	22,340000	47,320000
2,477133	53,961677	81,510	-0,084358	22,340000	47,320000
2,476383	52,402056	81,560	-0,084993	22,340000	47,320000
2,475673	52,402056	81,610	-0,084993	22,340000	47,320000
2,474982	52,337272	81,660	-0,085019	22,340000	47,320000
2,474266	51,881382	81,710	-0,085205	22,340000	47,320000
2,473573	51,231141	81,768	-0,085469	22,340000	47,320000
2,472900	51,166356	81,818	-0,085496	22,340000	47,320000
2,472175	50,386546	81,868	-0,085813	22,340000	47,320000
2,471433	50,451330	81,918	-0,085787	22,340000	47,320000
2,470804	49,801088	81,969	-0,086051	22,340000	47,320000
2,470122	49,736304	82,019	-0,086078	22,340000	47,320000
2,469357	49,150847	82,070	-0,086316	22,340000	47,320000
2,468683	49,996641	82,128	-0,085972	22,340000	47,320000
2,467996	48,890510	82,178	-0,086422	22,340000	47,320000
2,467287	47,330889	82,229	-0,087057	22,340000	47,320000
2,466561	48,110699	82,279	-0,086739	22,340000	47,320000
2,465873	47,395673	82,329	-0,087030	22,340000	47,320000
2,465206	47,460458	82,380	-0,087004	22,340000	47,320000
2,464472	47,200121	82,430	-0,087110	22,340000	47,320000
2,463781	47,330889	82,481	-0,087057	22,340000	47,320000
2,463090	46,745432	82,543	-0,087295	22,340000	47,320000
2,462453	46,420311	82,593	-0,087427	22,340000	47,320000
2,461701	45,900837	82,644	-0,087639	22,340000	47,320000
2,460987	45,574516	82,694	-0,087771	22,340000	47,320000
2,460300	44,860690	82,744	-0,088062	22,340000	47,320000
2,459614	44,794706	82,794	-0,088089	22,340000	47,320000
2,458870	44,860690	82,844	-0,088062	22,340000	47,320000
2,458211	44,860690	82,895	-0,088062	22,340000	47,320000
2,457500	44,794706	82,946	-0,088089	22,340000	47,320000
2,456727	43,819343	82,996	-0,088486	22,340000	47,320000
2,456070	43,235085	83,047	-0,088724	22,340000	47,320000
2,455391	43,885327	83,097	-0,088459	22,340000	47,320000
2,454677	43,169101	83,147	-0,088750	22,340000	47,320000
2,454013	42,194938	83,197	-0,089147	22,340000	47,320000
2,453308	42,845180	83,248	-0,088882	22,340000	47,320000
2,452585	41,934602	83,299	-0,089253	22,340000	47,320000
2,451860	41,544696	83,360	-0,089412	22,340000	47,320000
2,451157	41,869817	83,410	-0,089279	22,340000	47,320000
2,450512	41,413928	83,460	-0,089465	22,350000	47,360000
2,449829	40,634118	83,510	-0,089782	22,350000	47,360000
2,449063	40,698902	83,560	-0,089756	22,350000	47,360000
2,448356	40,308997	83,610	-0,089915	22,350000	47,360000
2,447712	39,853108	83,661	-0,090100	22,350000	47,360000
2,446987	40,113444	83,711	-0,089994	22,350000	47,360000
2,446237	38,358271	83,777	-0,090708	22,350000	47,360000
2,445619	39,268850	83,827	-0,090338	22,350000	47,360000
2,444879	38,423056	83,877	-0,090682	22,350000	47,360000
2,444161	38,358271	83,928	-0,090708	22,350000	47,360000
2,443534	38,163919	83,979	-0,090788	22,350000	47,360000
2,442772	37,447693	84,033	-0,091079	22,350000	47,360000
2,442125	37,513677	84,083	-0,091052	22,350000	47,360000
2,441365	36,928219	84,136	-0,091291	22,350000	47,360000
2,440648	36,928219	84,186	-0,091291	22,350000	47,360000
2,440009	36,603098	84,237	-0,091423	22,350000	47,360000
2,439251	36,017641	84,287	-0,091661	22,350000	47,360000
2,438611	35,562951	84,338	-0,091846	22,350000	47,360000
2,437882	34,718356	84,388	-0,092190	22,350000	47,360000
2,437189	35,433383	84,439	-0,091899	22,350000	47,360000
2,436511	34,327252	84,489	-0,092349	22,350000	47,360000
2,435805	34,587588	84,540	-0,092243	22,350000	47,360000
2,435079	34,522804	84,590	-0,092270	22,350000	47,360000
2,434323	34,327252	84,640	-0,092349	22,350000	47,360000
2,433688	34,262467	84,691	-0,092375	22,350000	47,360000
2,432992	32,897199	84,741	-0,092931	22,350000	47,360000
2,432272	32,572078	84,791	-0,093063	22,350000	47,360000
2,431559	33,157536	84,841	-0,092825	22,350000	47,360000
2,430892	32,572078	84,891	-0,093063	22,350000	47,360000
2,430193	31,336379	84,942	-0,093566	22,350000	47,360000
2,429477	31,596716	84,992	-0,093460	22,350000	47,360000
2,428760	31,662700	85,042	-0,093434	22,350000	47,360000
2,428107	31,857052	85,092	-0,093354	22,350000	47,360000
2,427393	31,336379	85,142	-0,093566	22,350000	47,360000
2,426643	30,491784	85,192	-0,093910	22,350000	47,360000
2,425977	31,142026	85,242	-0,093646	22,350000	47,360000
2,425264	30,816905	85,293	-0,093778	22,350000	47,360000
2,424608	30,491784	85,343	-0,093910	22,350000	47,360000
2,423883	29,776758	85,393	-0,094201	22,350000	47,360000
2,423195	30,427000	85,444	-0,093937	22,350000	47,360000
2,422436	29,776758	85,494	-0,094201	22,350000	47,360000
2,421840	30,231448	85,545	-0,094016	22,350000	47,360000
2,421085	28,280722	85,595	-0,094810	22,350000	47,360000
2,420348	28,411490	85,646	-0,094757	22,350000	47,360000
2,419730	28,541059	85,697	-0,094704	22,350000	47,360000
2,418952	27,761248	85,747	-0,095021	22,350000	47,360000
2,418271	27,826033	85,810	-0,094995	22,350000	47,360000
2,417571	28,215938	85,860	-0,094836	22,350000	47,360000
2,416887	27,306559	85,911	-0,095207	22,350000	47,360000
2,416142	27,306559	85,961	-0,095207	22,350000	47,360000
2,415429	27,046222	86,011	-0,095313	22,350000	47,360000
2,414758	26,981438	86,061	-0,095339	22,350000	47,360000
2,414068	26,525549	86,112	-0,095524	22,350000	47,360000
2,413370	27,371343	86,176	-0,095180	22,350000	47,360000
2,412695	26,785886	86,226	-0,095418	22,350000	47,360000
2,412064	26,525549	86,276	-0,095524	22,350000	47,360000
2,411315	25,291049	86,326	-0,096027	22,350000	47,360000
2,410604	25,745739	86,376	-0,095842	22,350000	47,360000
2,409891	24,250902	86,427	-0,096450	22,350000	47,360000
2,409201	24,965928	86,477	-0,096159	22,350000	47,360000
2,408506	24,770376	86,542	-0,096239	22,350000	47,360000
2,407776	24,445255	86,593	-0,096371	22,350000	47,360000
2,407069	24,574823	86,643	-0,096318	22,350000	47,360000
2,406439	23,534676	86,693	-0,096742	22,350000	47,360000
2,405707	23,275539	86,743	-0,096847	22,350000	47,360000
2,405026	23,534676	86,793	-0,096742	22,350000	47,360000
2,404265	23,209555	86,843	-0,096874	22,350000	47,360000
2,403616	23,015203	86,893	-0,096953	22,350000	47,360000
2,402885	22,169408	86,943	-0,097297	22,350000	47,360000
2,402184	22,364961	86,993	-0,097218	22,350000	47,360000
2,401498	21,910271	87,043	-0,097403	22,350000	47,360000
2,400785	21,779503	87,093	-0,097456	22,350000	47,360000
2,400105	21,714719	87,143	-0,097482	22,350000	47,360000
2,399399	21,779503	87,193	-0,097456	22,350000	47,360000
2,398727	21,519167	87,244	-0,097562	22,350000	47,360000
2,397964	20,934909	87,294	-0,097800	22,350000	47,360000
2,397252	21,389598	87,344	-0,097615	22,350000	47,360000
2,396565	21,649935	87,394	-0,097509	22,350000	47,360000
2,395889	19,894762	87,444	-0,098223	22,340000	47,310000
2,395198	19,894762	87,495	-0,098223	22,340000	47,310000
2,394495	20,024330	87,545	-0,098170	22,340000	47,310000
2,393759	19,894762	87,595	-0,098223	22,340000	47,310000
2,393066	19,438872	87,645	-0,098409	22,340000	47,310000
2,392365	19,569641	87,695	-0,098355	22,340000	47,310000
2,391703	19,374088	87,745	-0,098435	22,340000	47,310000
2,391000	19,634425	87,795	-0,098329	22,340000	47,310000
2,390259	19,179735	87,846	-0,098514	22,340000	47,310000
2,389601	18,398725	87,897	-0,098832	22,340000	47,310000
2,388830	18,529494	87,947	-0,098779	22,340000	47,310000
2,388163	18,204373	88,003	-0,098911	22,340000	47,310000
2,387466	17,879252	88,054	-0,099043	22,340000	47,310000
2,386788	17,683699	88,105	-0,099123	22,340000	47,310000
2,386049	17,748484	88,184	-0,099097	22,340000	47,310000
2,385412	17,293794	88,234	-0,099282	22,340000	47,310000
2,384716	17,358578	88,284	-0,099255	22,340000	47,310000
2,383970	16,124079	88,334	-0,099758	22,340000	47,310000
2,383250	17,164226	88,384	-0,099334	22,340000	47,310000
2,382523	16,968673	88,435	-0,099414	22,340000	47,310000
2,381880	16,124079	88,485	-0,099758	22,340000	47,310000
2,381181	15,473837	88,535	-0,100022	22,340000	47,310000
2,380514	15,668189	88,586	-0,099943	22,340000	47,310000
2,379739	15,863742	88,636	-0,099864	22,340000	47,310000
2,379101	15,798958	88,686	-0,099890	22,340000	47,310000
2,378380	15,148716	88,736	-0,100155	22,340000	47,310000
2,377698	14,822395	88,786	-0,100288	22,340000	47,310000
2,377008	15,082732	88,836	-0,100182	22,340000	47,310000
2,376301	14,692827	88,887	-0,100340	22,340000	47,310000
2,375637	14,758811	88,953	-0,100313	22,340000	47,310000
2,374872	14,108569	89,003	-0,100578	22,340000	47,310000
2,374158	13,652680	89,053	-0,100764	22,340000	47,310000
2,373508	14,108569	89,103	-0,100578	22,340000	47,310000
2,372829	14,498474	89,153	-0,100419	22,340000	47,310000
2,372078	13,913016	89,203	-0,100658	22,340000	47,310000
2,371341	13,848232	89,253	-0,100684	22,340000	47,310000
2,370723	13,262774	89,304	-0,100922	22,340000	47,310000
2,369987	13,067222	89,358	-0,101002	22,340000	47,310000
2,369270	14,108569	89,408	-0,100578	22,340000	47,310000
2,368580	13,587895	89,458	-0,100790	22,340000	47,320000
2,367887	13,262774	89,508	-0,100922	22,340000	47,320000
2,367164	12,547748	89,558	-0,101213	22,340000	47,320000
2,366532	12,482964	89,608	-0,101240	22,340000	47,320000
2,365732	11,703154	89,658	-0,101557	22,340000	47,320000
2,365032	12,808085	89,740	-0,101107	22,340000	47,320000
2,364377	12,416980	89,790	-0,101267	22,340000	47,320000
2,363681	11,572386	89,840	-0,101610	22,340000	47,320000
2,362960	12,157843	89,891	-0,101372	22,340000	47,320000
2,362281	10,857359	89,942	-0,101901	22,340000	47,320000
2,361626	10,922144	89,992	-0,101875	22,340000	47,320000
2,360814	10,986928	90,043	-0,101849	22,340000	47,320000
2,360196	11,117696	90,094	-0,101795	22,340000	47,320000
2,359519	10,271902	90,144	-0,102140	22,340000	47,320000
2,358755	10,077549	90,194	-0,102219	22,340000	47,320000
2,358047	10,207118	90,244	-0,102166	22,340000	47,320000
2,357383	10,986928	90,295	-0,101849	22,340000	47,320000
2,356697	10,597023	90,345	-0,102007	22,340000	47,320000
2,355932	9,946781	90,395	-0,102272	22,340000	47,320000
2,355247	9,361323	90,455	-0,102510	22,340000	47,320000
2,354595	10,142333	90,505	-0,102192	22,340000	47,320000
2,353856	10,402670	90,559	-0,102086	22,340000	47,320000
2,353161	8,971418	90,609	-0,102669	22,340000	47,320000
2,352481	8,777065	90,660	-0,102748	22,340000	47,320000
2,351805	8,777065	90,710	-0,102748	22,340000	47,320000
2,351068	8,516729	90,760	-0,102854	22,340000	47,320000
2,350422	8,777065	90,815	-0,102748	22,340000	47,320000
2,349687	8,321176	90,866	-0,102934	22,340000	47,320000
2,349023	8,516729	90,916	-0,102854	22,340000	47,320000
2,348312	8,387160	90,968	-0,102907	22,340000	47,320000
2,347609	8,516729	91,019	-0,102854	22,340000	47,320000
2,346835	8,581513	91,069	-0,102828	22,340000	47,320000
2,346152	8,126824	91,119	-0,103013	22,340000	47,320000
2,345523	8,256392	91,169	-0,102960	22,340000	47,320000
2,344799	8,387160	91,219	-0,102907	22,340000	47,320000
2,344101	8,321176	91,269	-0,102934	22,340000	47,320000
2,343392	7,931271	91,319	-0,103092	22,340000	47,320000
2,342730	7,736918	91,373	-0,103171	22,340000	47,320000
2,341940	7,931271	91,423	-0,103092	22,340000	47,335000
2,341264	7,476582	91,473	-0,103277	22,340000	47,335000
2,340607	8,062039	91,523	-0,103039	22,340000	47,335000
2,339898	7,476582	91,573	-0,103277	22,340000	47,335000
2,339193	7,347013	91,624	-0,103330	22,340000	47,335000
2,338485	7,021892	91,675	-0,103462	22,340000	47,335000
2,337802	7,281029	91,728	-0,103357	22,340000	47,335000
2,337053	7,347013	91,778	-0,103330	22,340000	47,335000
2,336360	6,891124	91,828	-0,103516	22,340000	47,335000
2,335668	7,216245	91,879	-0,103383	22,340000	47,335000
2,335005	6,761556	91,933	-0,103568	22,340000	47,335000
2,334300	6,305666	91,983	-0,103754	22,340000	47,335000
2,333569	6,240882	92,033	-0,103780	22,340000	47,335000
2,332944	6,566003	92,083	-0,103648	22,340000	47,335000
2,332192	6,631987	92,158	-0,103621	22,340000	47,335000
2,331523	6,176098	92,208	-0,103807	22,340000	47,335000
2,330757	5,850977	92,258	-0,103939	22,340000	47,335000
2,330059	5,396288	92,309	-0,104124	22,340000	47,335000
2,329351	5,525856	92,359	-0,104071	22,340000	47,335000
2,328653	5,525856	92,409	-0,104071	22,340000	47,335000
2,327976	5,135951	92,459	-0,104230	22,340000	47,335000
2,327298	5,006382	92,535	-0,104283	22,340000	47,335000
2,326630	4,941598	92,585	-0,104309	22,340000	47,335000
2,325903	4,681262	92,635	-0,104415	22,340000	47,335000
2,325195	4,420925	92,685	-0,104521	22,340000	47,335000
2,324474	4,095804	92,735	-0,104653	22,340000	47,335000
2,323775	4,810830	92,785	-0,104362	22,340000	47,335000
2,323085	4,290157	92,835	-0,104574	22,340000	47,335000
2,322436	4,095804	92,885	-0,104653	22,340000	47,335000
2,321671	4,031020	92,949	-0,104680	22,340000	47,335000
2,320969	3,835467	92,999	-0,104759	22,340000	47,335000
2,320316	3,900251	93,049	-0,104733	22,340000	47,335000
2,319571	3,835467	93,099	-0,104759	22,340000	47,335000
2,318880	3,445562	93,152	-0,104918	22,340000	47,335000
2,318152	3,900251	93,202	-0,104733	22,340000	47,335000
2,317461	3,510346	93,253	-0,104892	22,340000	47,335000
2,316741	3,576330	93,303	-0,104865	22,340000	47,335000
2,316087	3,185225	93,353	-0,105024	22,340000	47,335000
2,315379	2,275847	93,403	-0,105394	22,340000	47,335000
2,314759	2,926088	93,476	-0,105129	22,340000	47,335000
2,313990	2,926088	93,527	-0,105129	22,340000	47,335000
2,313236	2,015510	93,577	-0,105500	22,340000	47,335000
2,312607	3,185225	93,628	-0,105024	22,340000	47,335000
2,311870	2,080294	93,679	-0,105474	22,340000	47,335000
2,311190	1,559621	93,729	-0,105686	22,340000	47,335000
2,310446	1,819957	93,779	-0,105580	22,340000	47,335000
2,309743	1,755173	93,829	-0,105606	22,340000	47,335000
2,309111	0,650242	93,879	-0,106056	22,340000	47,335000
2,308365	1,234500	93,930	-0,105818	22,340000	47,335000
2,307683	0,779810	93,980	-0,106003	22,340000	47,335000
2,307011	1,300484	94,030	-0,105791	22,340000	47,335000
2,306241	0,844595	94,080	-0,105977	22,340000	47,335000
2,305562	0,975363	94,157	-0,105923	22,340000	47,335000
2,304885	0,975363	94,207	-0,105923	22,340000	47,335000
2,304161	1,040147	94,257	-0,105897	22,340000	47,335000
2,303547	0,520673	94,307	-0,106108	22,340000	47,335000
2,302779	0,584258	94,358	-0,106083	22,340000	47,335000
2,302073	0,520673	94,408	-0,106108	22,340000	47,335000
2,301400	-0,064784	94,459	-0,106347	22,340000	47,335000
2,300692	0,454689	94,509	-0,106135	22,340000	47,335000
2,300032	0,194353	94,581	-0,106241	22,340000	47,335000
2,299276	-0,650242	94,646	-0,106585	22,340000	47,335000
2,298571	-0,195552	94,696	-0,106400	22,340000	47,335000
2,297920	-1,170915	94,746	-0,106797	22,340000	47,335000
2,297204	-0,715026	94,796	-0,106611	22,340000	47,335000
2,296473	-0,779810	94,846	-0,106638	22,340000	47,335000
2,295836	-1,821157	94,896	-0,107062	22,340000	47,335000
2,295123	-1,496036	94,951	-0,106929	22,340000	47,335000
2,294357	-1,690389	95,001	-0,107008	22,340000	47,335000
2,293708	-2,471399	95,052	-0,107326	22,340000	47,335000
2,292964	-1,821157	95,102	-0,107062	22,340000	47,335000
2,292265	-2,015510	95,153	-0,107141	22,340000	47,335000
2,291569	-2,080294	95,203	-0,107167	22,340000	47,335000
2,290891	-3,315994	95,253	-0,107670	22,340000	47,335000
2,290153	-2,471399	95,304	-0,107326	22,340000	47,335000
2,289475	-3,055657	95,371	-0,107564	22,340000	47,335000
2,288771	-3,055657	95,421	-0,107564	22,340000	47,335000
2,288097	-3,251209	95,471	-0,107644	22,340000	47,295000
2,287381	-3,445562	95,521	-0,107723	22,340000	47,295000
2,286674	-3,901451	95,571	-0,107908	22,340000	47,295000
2,285995	-3,251209	95,622	-0,107644	22,340000	47,295000
2,285345	-3,641114	95,673	-0,107802	22,340000	47,295000
2,284574	-3,380778	95,738	-0,107696	22,340000	47,295000
2,283930	-3,835467	95,788	-0,107881	22,340000	47,295000
2,283171	-3,770683	95,838	-0,107855	22,340000	47,295000
2,282425	-3,641114	95,889	-0,107802	22,340000	47,295000
2,281805	-4,160588	95,940	-0,108014	22,340000	47,295000
2,281117	-4,160588	95,991	-0,108014	22,340000	47,295000
2,280382	-4,356141	96,041	-0,108093	22,340000	47,295000
2,279706	-4,291356	96,100	-0,108067	22,340000	47,295000
2,279018	-4,486909	96,151	-0,108146	22,340000	47,295000
2,278290	-4,420925	96,201	-0,108120	22,340000	47,295000
2,277608	-5,135951	96,251	-0,108411	22,340000	47,295000
2,276913	-5,331503	96,301	-0,108490	22,340000	47,295000
2,276203	-5,527056	96,351	-0,108570	22,340000	47,295000
2,275506	-5,656624	96,402	-0,108623	22,340000	47,295000
2,274770	-5,721409	96,453	-0,108649	22,340000	47,295000
2,274074	-6,242082	96,503	-0,108861	22,340000	47,295000
2,273419	-6,046529	96,576	-0,108781	22,340000	47,295000
2,272726	-6,111314	96,626	-0,108808	22,340000	47,295000
2,271928	-6,436435	96,677	-0,108940	22,340000	47,295000
2,271288	-6,176098	96,728	-0,108834	22,340000	47,295000
2,270642	-7,021892	96,778	-0,109178	22,340000	47,295000
2,269907	-6,826340	96,829	-0,109099	22,340000	47,295000
2,269190	-6,306866	96,882	-0,108887	22,340000	47,295000
2,268536	-7,672134	96,932	-0,109443	22,340000	47,295000
2,267706	-6,957108	96,982	-0,109152	22,340000	47,295000
2,267112	-7,607350	97,032	-0,109417	22,340000	47,295000
2,266419	-7,476582	97,082	-0,109363	22,340000	47,295000
2,265640	-7,672134	97,133	-0,109443	22,340000	47,295000
2,264964	-7,866487	97,184	-0,109522	22,340000	47,295000
2,264308	-8,126824	97,234	-0,109628	22,340000	47,295000
2,263589	-7,736918	97,285	-0,109469	22,340000	47,295000
2,262895	-8,322376	97,340	-0,109708	22,340000	47,295000
2,262162	-8,582713	97,390	-0,109813	22,340000	47,295000
2,261446	-8,777065	97,441	-0,109893	22,340000	47,335000
2,260839	-8,582713	97,492	-0,109813	22,340000	47,335000
2,260108	-8,126824	97,543	-0,109628	22,340000	47,335000
2,259386	-8,516729	97,594	-0,109787	22,340000	47,335000
2,258623	-8,777065	97,644	-0,109893	22,340000	47,335000
2,258004	-8,841850	97,694	-0,109919	22,340000	47,335000
2,257305	-9,231755	97,750	-0,110078	22,340000	47,335000
2,256605	-10,598223	97,800	-0,110634	22,340000	47,335000
2,255872	-10,077549	97,850	-0,110422	22,340000	47,335000
2,255189	-9,622860	97,900	-0,110237	22,340000	47,335000
2,254497	-10,142333	97,950	-0,110448	22,340000	47,335000
2,253766	-10,402670	98,000	-0,110554	22,340000	47,335000
2,253087	-10,727791	98,050	-0,110687	22,340000	47,335000
2,252391	-10,532239	98,100	-0,110607	22,340000	47,335000
2,251656	-10,663007	98,166	-0,110660	22,340000	47,335000
2,251008	-11,247265	98,216	-0,110898	22,340000	47,335000
2,250268	-11,052912	98,266	-0,110819	22,340000	47,335000
2,249627	-11,638370	98,316	-0,111057	22,340000	47,335000
2,248830	-11,182480	98,366	-0,110872	22,340000	47,335000
2,248166	-11,247265	98,416	-0,110898	22,340000	47,335000
2,247528	-11,767938	98,467	-0,111110	22,340000	47,335000
2,246783	-11,832722	98,533	-0,111136	22,340000	47,335000
2,246108	-11,703154	98,583	-0,111083	22,340000	47,335000
2,245425	-12,093059	98,634	-0,111242	22,340000	47,335000
2,244651	-12,287412	98,684	-0,111321	22,340000	47,335000
2,243968	-11,767938	98,735	-0,111110	22,340000	47,335000
2,243245	-12,222627	98,785	-0,111295	22,340000	47,335000
2,242576	-12,808085	98,835	-0,111533	22,340000	47,335000
2,241863	-11,832722	98,885	-0,111136	22,340000	47,335000
2,241146	-12,808085	98,942	-0,111533	22,340000	47,335000
2,240491	-12,482964	98,992	-0,111401	22,340000	47,335000
2,239712	-12,418180	99,042	-0,111375	22,340000	47,335000
2,239087	-11,832722	99,092	-0,111136	22,340000	47,335000
2,238399	-13,068422	99,143	-0,111639	22,340000	47,335000
2,237633	-13,003638	99,194	-0,111613	22,340000	47,335000
2,237003	-12,743301	99,244	-0,111507	22,340000	47,335000
2,236261	-13,393543	99,294	-0,111771	22,340000	47,335000
2,235555	-12,612533	99,361	-0,111454	22,340000	47,335000
2,234909	-12,937654	99,412	-0,111586	22,340000	47,335000
2,234141	-12,482964	99,462	-0,111401	22,340000	47,350000
2,233458	-13,393543	99,512	-0,111771	22,340000	47,350000
2,232715	-13,393543	99,563	-0,111771	22,340000	47,350000
2,232125	-13,133206	99,613	-0,111666	22,340000	47,350000
2,231398	-13,197990	99,663	-0,111692	22,340000	47,350000
2,230674	-13,587895	99,714	-0,111851	22,340000	47,350000
2,230086	-13,263974	99,781	-0,111719	22,340000	47,350000
2,229253	-13,653879	99,831	-0,111877	22,340000	47,350000
2,228582	-14,043785	99,881	-0,112036	22,340000	47,350000
2,227871	-13,133206	99,931	-0,111666	22,340000	47,350000
2,227213	-13,653879	99,989	-0,111877	22,340000	47,350000
2,226432	-13,327559	100,040	-0,111745	22,340000	47,350000
2,225755	-13,263974	100,090	-0,111719	22,340000	47,350000
2,225109	-13,977801	100,146	-0,112009	22,340000	47,350000
2,224406	-13,913016	100,196	-0,111983	22,340000	47,350000
2,223676	-13,848232	100,246	-0,111957	22,340000	47,350000
2,223043	-13,848232	100,296	-0,111957	22,340000	47,350000
2,222270	-13,848232	100,346	-0,111957	22,340000	47,350000
2,221558	-13,653879	100,396	-0,111877	22,340000	47,350000
2,220898	-13,393543	100,446	-0,111771	22,340000	47,350000
2,220199	-14,302922	100,497	-0,112142	22,340000	47,350000
2,219451	-14,302922	100,548	-0,112142	22,340000	47,350000
2,218802	-14,628042	100,599	-0,112274	22,340000	47,350000
2,218058	-14,108569	100,649	-0,112062	22,340000	47,350000
2,217419	-14,367706	100,700	-0,112168	22,340000	47,350000
2,216741	-14,694026	100,750	-0,112301	22,340000	47,350000
2,215964	-14,563258	100,800	-0,112248	22,340000	47,350000
2,215292	-15,148716	100,850	-0,112486	22,340000	47,350000
2,214547	-15,148716	100,901	-0,112486	22,340000	47,350000
2,213856	-15,213500	100,972	-0,112512	22,340000	47,350000
2,213165	-15,409053	101,023	-0,112592	22,340000	47,350000
2,212504	-15,538621	101,073	-0,112645	22,340000	47,350000
2,211753	-14,953163	101,123	-0,112406	22,340000	47,350000
2,211101	-15,213500	101,174	-0,112512	22,340000	47,350000
2,210435	-15,409053	101,225	-0,112592	22,340000	47,350000
2,209688	-15,278284	101,276	-0,112539	22,340000	47,350000
2,208976	-15,473837	101,326	-0,112618	22,340000	47,350000
2,208252	-15,603405	101,386	-0,112671	22,340000	47,350000
2,207596	-15,343069	101,436	-0,112565	22,340000	47,350000
2,206897	-15,278284	101,487	-0,112539	22,340000	47,350000
2,206224	-15,538621	101,548	-0,112645	22,340000	47,350000
2,205497	-15,603405	101,603	-0,112671	22,340000	47,350000
2,204760	-15,734173	101,654	-0,112724	22,340000	47,350000
2,204099	-15,928526	101,704	-0,112803	22,340000	47,350000
2,203335	-15,928526	101,754	-0,112803	22,340000	47,350000
2,202665	-15,863742	101,804	-0,112777	22,340000	47,350000
2,201967	-16,709536	101,854	-0,113121	22,340000	47,350000
2,201256	-16,449200	101,905	-0,113015	22,340000	47,350000
2,200586	-16,383216	101,955	-0,112988	22,340000	47,350000
2,199883	-16,449200	102,020	-0,113015	22,340000	47,350000
2,199153	-16,124079	102,070	-0,112883	22,340000	47,350000
2,198474	-15,993310	102,120	-0,112830	22,340000	47,350000
2,197763	-16,839105	102,173	-0,113174	22,340000	47,350000
2,197099	-16,968673	102,224	-0,113227	22,340000	47,350000
2,196358	-16,643552	102,274	-0,113094	22,340000	47,350000
2,195695	-17,293794	102,325	-0,113359	22,340000	47,350000
2,194993	-16,903889	102,375	-0,113200	22,340000	47,350000
2,194342	-16,839105	102,426	-0,113174	22,340000	47,350000
2,193576	-17,293794	102,480	-0,113359	22,340000	47,350000
2,192906	-17,293794	102,539	-0,113359	22,340000	47,350000
2,192212	-17,618915	102,589	-0,113491	22,340000	47,350000
2,191455	-16,968673	102,639	-0,113227	22,340000	47,350000
2,190770	-17,099441	102,689	-0,113280	22,340000	47,350000
2,190107	-16,643552	102,740	-0,113094	22,340000	47,350000
2,189324	-17,814468	102,790	-0,113571	22,340000	47,350000
2,188653	-17,099441	102,840	-0,113280	22,340000	47,350000
2,187992	-16,709536	102,890	-0,113121	22,340000	47,350000
2,187288	-17,749683	102,951	-0,113544	22,340000	47,350000
2,186569	-17,359778	103,001	-0,113386	22,340000	47,350000
2,185842	-17,879252	103,052	-0,113597	22,340000	47,350000
2,185271	-17,749683	103,102	-0,113544	22,340000	47,350000
2,184521	-18,139588	103,153	-0,113703	22,340000	47,350000
2,183788	-18,204373	103,204	-0,113729	22,340000	47,350000
2,183109	-17,359778	103,254	-0,113386	22,340000	47,350000
2,182390	-17,683699	103,304	-0,113518	22,340000	47,350000
2,181687	-17,944036	103,354	-0,113624	22,340000	47,350000
2,180982	-18,139588	103,404	-0,113703	22,340000	47,350000
2,180272	-18,333941	103,454	-0,113782	22,340000	47,350000
2,179569	-17,944036	103,504	-0,113624	22,340000	47,350000
2,178883	-18,204373	103,554	-0,113729	22,340000	47,350000
2,178182	-18,659062	103,604	-0,113915	22,340000	47,350000
2,177497	-17,944036	103,654	-0,113624	22,340000	47,350000
2,176793	-18,008820	103,705	-0,113650	22,340000	47,350000
2,176049	-18,333941	103,769	-0,113782	22,340000	47,350000
2,175346	-18,333941	103,820	-0,113782	22,340000	47,350000
2,174690	-18,464709	103,870	-0,113835	22,340000	47,350000
2,174014	-2,275847	103,922	-0,107247	22,340000	47,350000
2,173290	-1,430052	103,972	-0,106902	22,340000	47,350000
2,172556	0,194353	104,024	-0,106241	22,340000	47,350000
2,171849	0,064784	104,074	-0,106294	22,340000	47,350000
2,171168	-0,455889	104,130	-0,106506	22,340000	47,350000
2,170514	-0,129568	104,180	-0,106373	22,340000	47,350000
2,169806	-0,325121	104,230	-0,106453	22,340000	47,350000
2,169057	-0,195552	104,280	-0,106400	22,340000	47,350000
2,168403	0,194353	104,330	-0,106241	22,340000	47,350000
2,167650	-0,195552	104,380	-0,106400	22,340000	47,350000
2,166922	0,064784	104,430	-0,106294	22,340000	47,350000
2,166295	-0,195552	104,481	-0,106400	22,340000	47,350000
2,165618	0,129568	104,552	-0,106268	22,340000	47,350000
2,164893	0,520673	104,602	-0,106108	22,340000	47,350000
2,164154	0,454689	104,652	-0,106135	22,340000	47,350000
2,163510	-0,455889	104,702	-0,106506	22,340000	47,350000
2,162703	0,000000	104,752	-0,106320	22,340000	47,350000
2,162096	0,194353	104,803	-0,106241	22,340000	47,350000
2,161394	-0,260337	104,853	-0,106426	22,340000	47,350000
2,160669	-0,064784	104,903	-0,106347	22,340000	47,350000
2,159954	-0,715026	104,953	-0,106611	22,340000	47,350000
2,159250	0,000000	105,003	-0,106320	22,340000	47,350000
2,158587	0,129568	105,054	-0,106268	22,340000	47,350000
2,157881	-0,585458	105,105	-0,106559	22,340000	47,350000
2,157146	0,520673	105,157	-0,106108	22,340000	47,350000
2,156452	0,000000	105,208	-0,106320	22,340000	47,350000
2,155782	0,389905	105,258	-0,106162	22,340000	47,350000
2,155067	-0,520673	105,308	-0,106532	22,340000	47,350000
2,154381	-0,129568	105,359	-0,106373	22,340000	47,350000
2,153678	-0,389905	105,410	-0,106479	22,340000	47,350000
2,152932	0,129568	105,460	-0,106268	22,350000	47,310000
2,152217	-0,779810	105,510	-0,106638	22,350000	47,310000
2,151592	-0,650242	105,560	-0,106585	22,350000	47,310000
2,150874	-0,455889	105,611	-0,106506	22,350000	47,310000
2,150186	-0,389905	105,661	-0,106479	22,350000	47,310000
2,149437	-0,520673	105,712	-0,106532	22,350000	47,310000
2,148788	0,260337	105,781	-0,106214	22,350000	47,310000
2,148141	0,520673	105,831	-0,106108	22,350000	47,310000
2,147385	-0,064784	105,881	-0,106347	22,350000	47,310000
2,146725	0,000000	105,931	-0,106320	22,350000	47,310000
2,145996	0,389905	105,981	-0,106162	22,350000	47,310000
2,145280	0,129568	106,031	-0,106268	22,350000	47,310000
2,144661	-0,389905	106,081	-0,106479	22,350000	47,310000
2,143859	0,389905	106,155	-0,106162	22,350000	47,310000
2,143220	-0,064784	106,205	-0,106347	22,350000	47,310000
2,142458	0,129568	106,255	-0,106268	22,350000	47,310000
2,141814	0,129568	106,305	-0,106268	22,350000	47,310000
2,141109	-0,260337	106,355	-0,106426	22,350000	47,310000
2,140367	-0,064784	106,405	-0,106347	22,350000	47,310000
2,139690	-0,845794	106,455	-0,106665	22,350000	47,310000
2,138950	-0,195552	106,505	-0,106400	22,350000	47,310000
2,138269	0,325121	106,576	-0,106188	22,350000	47,310000
2,137609	0,064784	106,627	-0,106294	22,350000	47,310000
2,136828	0,454689	106,678	-0,106135	22,350000	47,310000
2,136206	-0,325121	106,728	-0,106453	22,350000	47,310000
2,135483	-0,129568	106,778	-0,106373	22,350000	47,310000
2,134801	-0,389905	106,829	-0,106479	22,350000	47,310000
2,134087	0,520673	106,879	-0,106108	22,350000	47,310000
2,133408	0,064784	106,938	-0,106294	22,350000	47,310000
2,132672	0,129568	106,989	-0,106268	22,350000	47,310000
2,132017	-0,195552	107,039	-0,106400	22,350000	47,310000
2,131276	0,520673	107,090	-0,106108	22,350000	47,310000
2,130580	-0,195552	107,140	-0,106400	22,350000	47,310000
2,129944	-0,064784	107,191	-0,106347	22,350000	47,310000
2,129196	-0,325121	107,241	-0,106453	22,350000	47,310000
2,128499	0,194353	107,299	-0,106241	22,350000	47,310000
2,127767	-0,779810	107,350	-0,106638	22,350000	47,310000
2,127118	-0,064784	107,400	-0,106347	22,350000	47,310000
2,126368	0,194353	107,450	-0,106241	22,340000	47,350000
2,125641	0,194353	107,500	-0,106241	22,340000	47,350000
2,124975	-0,195552	107,550	-0,106400	22,340000	47,350000
2,124238	-0,129568	107,603	-0,106373	22,340000	47,350000
2,123608	0,389905	107,653	-0,106162	22,340000	47,350000
2,122849	0,260337	107,703	-0,106214	22,340000	47,350000
2,122152	-0,260337	107,757	-0,106426	22,340000	47,350000
2,121478	0,389905	107,807	-0,106162	22,340000	47,350000
2,120843	-0,260337	107,858	-0,106426	22,340000	47,350000
2,120106	0,000000	107,908	-0,106320	22,340000	47,350000
2,119338	0,454689	107,958	-0,106135	22,340000	47,350000
2,118717	-0,325121	108,008	-0,106453	22,340000	47,350000
2,117952	0,000000	108,058	-0,106320	22,340000	47,350000
2,117261	-0,715026	108,108	-0,106611	22,340000	47,350000
2,116622	0,389905	108,180	-0,106162	22,340000	47,350000
2,115862	0,064784	108,230	-0,106294	22,340000	47,350000
2,115219	-0,195552	108,280	-0,106400	22,340000	47,350000
2,114498	0,325121	108,330	-0,106188	22,340000	47,350000
2,113858	0,064784	108,380	-0,106294	22,340000	47,350000
2,113105	-0,455889	108,430	-0,106506	22,340000	47,350000
2,112404	-0,195552	108,480	-0,106400	22,340000	47,350000
2,111688	-0,389905	108,550	-0,106479	22,340000	47,350000
2,110963	-0,650242	108,600	-0,106585	22,340000	47,350000
2,110277	0,260337	108,651	-0,106214	22,340000	47,350000
2,109559	-0,325121	108,702	-0,106453	22,340000	47,350000
2,108971	0,129568	108,753	-0,106268	22,340000	47,350000
2,108220	0,389905	108,804	-0,106162	22,340000	47,350000
2,107511	-0,520673	108,854	-0,106532	22,340000	47,350000
2,106847	-0,129568	108,904	-0,106373	22,340000	47,350000
2,106113	-0,325121	108,960	-0,106453	22,340000	47,350000
2,105405	-0,455889	109,011	-0,106506	22,340000	47,350000
2,104636	-0,455889	109,062	-0,106506	22,340000	47,350000
2,103928	0,260337	109,112	-0,106214	22,340000	47,350000
2,103303	0,325121	109,163	-0,106188	22,340000	47,350000
2,102627	-1,040147	109,213	-0,106744	22,340000	47,350000
2,101888	-0,129568	109,263	-0,106373	22,340000	47,350000
2,101229	-0,129568	109,314	-0,106373	22,340000	47,350000
2,100501	-0,325121	109,390	-0,106453	22,340000	47,350000
2,099765	-0,260337	109,440	-0,106426	22,340000	47,350000
2,099047	0,129568	109,490	-0,106268	22,340000	47,350000
2,098390	0,129568	109,540	-0,106268	22,340000	47,350000
2,097729	-0,520673	109,590	-0,106532	22,340000	47,350000
2,097025	-0,195552	109,641	-0,106400	22,340000	47,350000
2,096273	0,129568	109,692	-0,106268	22,340000	47,350000
2,095615	0,000000	109,757	-0,106320	22,340000	47,350000
2,094884	-0,129568	109,807	-0,106373	22,340000	47,350000
2,094141	-0,325121	109,858	-0,106453	22,340000	47,350000
2,093491	-0,455889	109,908	-0,106506	22,340000	47,350000
2,092802	0,129568	109,959	-0,106268	22,340000	47,350000
2,092066	0,000000	110,010	-0,106320	22,340000	47,350000
2,091442	0,000000	110,060	-0,106320	22,340000	47,350000
2,090662	0,260337	110,110	-0,106214	22,340000	47,350000
2,089940	-0,195552	110,162	-0,106400	22,340000	47,350000
2,089270	0,129568	110,212	-0,106268	22,340000	47,350000
2,088552	0,000000	110,263	-0,106320	22,340000	47,350000
2,087947	-0,195552	110,314	-0,106400	22,340000	47,350000
2,087125	0,129568	110,365	-0,106268	22,340000	47,350000
2,086446	0,129568	110,415	-0,106268	22,340000	47,350000
2,085740	-0,260337	110,465	-0,106426	22,340000	47,350000
2,085136	0,389905	110,515	-0,106162	22,340000	47,350000
2,084385	0,260337	110,592	-0,106214	22,340000	47,350000
2,083736	0,325121	110,642	-0,106188	22,340000	47,350000
2,082981	-0,520673	110,692	-0,106532	22,340000	47,350000
2,082304	-0,260337	110,743	-0,106426	22,340000	47,350000
2,081568	0,000000	110,794	-0,106320	22,340000	47,350000
2,080890	0,064784	110,844	-0,106294	22,340000	47,350000
2,080192	0,389905	110,894	-0,106162	22,340000	47,350000
2,079539	0,129568	110,957	-0,106268	22,340000	47,350000
2,078795	0,454689	111,007	-0,106135	22,340000	47,350000
2,078044	-0,455889	111,057	-0,106506	22,340000	47,350000
2,077388	0,520673	111,108	-0,106108	22,340000	47,350000
2,076674	-0,195552	111,158	-0,106400	22,340000	47,350000
2,076024	0,260337	111,208	-0,106214	22,340000	47,350000
2,075287	0,064784	111,258	-0,106294	22,340000	47,350000
2,074547	-0,129568	111,308	-0,106373	22,340000	47,350000
2,073881	-0,260337	111,358	-0,106426	22,340000	47,350000
2,073190	-0,064784	111,409	-0,106347	22,340000	47,350000
2,072466	-0,195552	111,460	-0,106400	22,340000	47,350000
2,071787	-0,195552	111,510	-0,106400	22,340000	47,350000
2,071078	-0,779810	111,560	-0,106638	22,340000	47,350000
2,070355	0,389905	111,611	-0,106162	22,340000	47,350000
2,069706	0,064784	111,662	-0,106294	22,340000	47,350000
2,068996	0,129568	111,713	-0,106268	22,340000	47,350000
2,068326	0,129568	111,763	-0,106268	22,340000	47,350000
2,067533	-0,455889	111,813	-0,106506	22,340000	47,350000
2,066962	0,129568	111,863	-0,106268	22,340000	47,350000
2,066185	0,000000	111,913	-0,106320	22,340000	47,350000
2,065537	-0,195552	111,963	-0,106400	22,340000	47,350000
2,064821	0,194353	112,014	-0,106241	22,340000	47,350000
2,064083	0,129568	112,064	-0,106268	22,340000	47,350000
2,063383	0,129568	112,114	-0,106268	22,340000	47,350000
2,062709	-0,455889	112,164	-0,106506	22,340000	47,350000
2,061960	-0,455889	112,214	-0,106506	22,340000	47,350000
2,061286	-0,064784	112,265	-0,106347	22,340000	47,350000
2,060633	-0,064784	112,315	-0,106347	22,340000	47,350000
2,059903	-0,325121	112,365	-0,106453	22,340000	47,350000
2,059206	-0,260337	112,415	-0,106426	22,340000	47,350000
2,058541	0,129568	112,465	-0,106268	22,340000	47,350000
2,057788	0,194353	112,515	-0,106241	22,340000	47,350000
2,057112	-0,064784	112,584	-0,106347	22,340000	47,350000
2,056400	-0,129568	112,634	-0,106373	22,340000	47,350000
2,055672	0,584258	112,684	-0,106083	22,340000	47,350000
2,055009	-0,064784	112,735	-0,106347	22,340000	47,350000
2,054347	-0,455889	112,787	-0,106506	22,340000	47,350000
2,053593	0,064784	112,838	-0,106294	22,340000	47,350000
2,052932	0,194353	112,888	-0,106241	22,340000	47,350000
2,052203	-0,195552	112,950	-0,106400	22,340000	47,350000
2,051471	-0,064784	113,000	-0,106347	22,340000	47,350000
2,050773	-0,129568	113,050	-0,106373	22,340000	47,350000
2,050077	-0,129568	113,101	-0,106373	22,340000	47,350000
