Quasi static measurement routine
Tip parameters (shape,radius, material...) 
27.06.2022

Piezo position[nm]	MEMS displ.[nm]	Time[ms]	Cap [pf]
eoh
4,101637	0,000000	0,00	-0,092852
4,102541	0,304895	0,06	-0,092719
4,103485	0,426402	0,12	-0,092667
4,104483	0,060754	0,22	-0,092825
4,105504	-0,060754	0,28	-0,092878
4,106483	0,365648	0,35	-0,092693
4,107498	0,121508	0,41	-0,092799
4,108508	0,121508	0,46	-0,092799
4,109516	0,243016	0,51	-0,092746
4,110504	-0,060754	0,58	-0,092878
4,111490	0,060754	0,64	-0,092825
4,112508	0,365648	0,69	-0,092693
4,113508	0,121508	0,74	-0,092799
4,114517	-0,060754	0,79	-0,092878
4,115509	0,549035	0,84	-0,092613
4,116519	0,000000	0,89	-0,092852
4,117497	0,121508	0,94	-0,092799
4,118460	0,000000	1,00	-0,092852
4,119529	-0,060754	1,05	-0,092878
4,120503	0,304895	1,10	-0,092719
4,121510	0,243016	1,16	-0,092746
4,122508	0,243016	1,21	-0,092746
4,123495	0,182262	1,26	-0,092772
4,124547	-0,122633	1,31	-0,092905
4,125528	0,182262	1,36	-0,092772
4,126551	0,304895	1,42	-0,092719
4,127504	-0,122633	1,48	-0,092905
4,128555	0,426402	1,53	-0,092667
4,129515	0,426402	1,58	-0,092667
4,130472	0,731297	1,64	-0,092534
4,131512	0,487156	1,73	-0,092640
4,132443	0,549035	1,80	-0,092613
4,133484	0,243016	1,87	-0,092746
4,134547	0,243016	1,92	-0,092746
4,135493	0,365648	1,98	-0,092693
4,136579	-0,609789	2,02	-0,093116
4,137504	-0,427527	2,09	-0,093037
4,138466	0,243016	2,14	-0,092746
4,139483	-0,366773	2,20	-0,093011
4,140448	0,000000	2,25	-0,092852
4,141540	0,121508	2,30	-0,092799
4,142479	0,487156	2,35	-0,092640
4,143485	0,121508	2,40	-0,092799
4,144484	0,304895	2,45	-0,092719
4,145502	0,549035	2,50	-0,092613
4,146484	0,121508	2,55	-0,092799
4,147490	-0,060754	2,61	-0,092878
4,148488	0,000000	2,66	-0,092852
4,149480	-0,122633	2,71	-0,092905
4,150484	0,608664	2,76	-0,092587
4,151508	0,060754	2,81	-0,092825
4,152525	-0,122633	2,86	-0,092905
4,153520	0,426402	2,91	-0,092667
4,154447	-0,060754	2,96	-0,092878
4,155567	0,000000	3,02	-0,092852
4,156525	0,670543	3,07	-0,092561
4,157494	0,670543	3,12	-0,092561
4,158464	-0,122633	3,17	-0,092905
4,159511	0,426402	3,22	-0,092667
4,160495	0,304895	3,27	-0,092719
4,161504	0,000000	3,33	-0,092852
4,162486	0,304895	3,38	-0,092719
4,163515	0,060754	3,44	-0,092825
4,164461	-0,060754	3,49	-0,092878
4,165485	0,000000	3,54	-0,092852
4,166489	-0,060754	3,59	-0,092878
4,167492	-1,098070	3,64	-0,093328
4,168454	-1,037316	3,70	-0,093302
4,169403	-0,488281	3,75	-0,093063
4,170493	-0,793176	3,81	-0,093196
4,171500	-0,366773	3,86	-0,093011
4,172490	-1,037316	3,91	-0,093302
4,173485	-0,914684	3,96	-0,093249
4,174476	-0,122633	4,01	-0,092905
4,175505	-0,732422	4,06	-0,093169
4,176552	-0,975437	4,12	-0,093275
4,177492	-1,341086	4,19	-0,093434
4,178478	-0,244141	4,24	-0,092958
4,179493	-0,671668	4,29	-0,093143
4,180465	-0,671668	4,35	-0,093143
4,181478	-0,914684	4,40	-0,093249
4,182530	-0,853930	4,45	-0,093222
4,183412	-0,488281	4,50	-0,093063
4,184464	-1,158824	4,56	-0,093354
4,185493	-1,037316	4,62	-0,093302
4,186434	-0,914684	4,67	-0,093249
4,187495	-0,244141	4,72	-0,092958
4,188475	-1,341086	4,77	-0,093434
4,189521	-0,975437	4,83	-0,093275
4,190469	-0,975437	4,88	-0,093275
4,191465	-1,341086	4,94	-0,093434
4,192516	-0,975437	4,99	-0,093275
4,193478	-0,914684	5,04	-0,093249
4,194489	-0,427527	5,09	-0,093037
4,195483	-1,402965	5,14	-0,093460
4,196497	-0,732422	5,19	-0,093169
4,197493	0,060754	5,25	-0,092825
4,198507	1,036191	5,30	-0,092402
4,199479	1,585226	5,36	-0,092164
4,200470	2,072383	5,44	-0,091952
4,201528	2,377277	5,50	-0,091820
4,202502	4,877187	5,55	-0,090735
4,203437	5,670363	5,61	-0,090391
4,204488	6,157519	5,66	-0,090179
4,205471	7,437851	5,74	-0,089624
4,206435	8,535921	5,81	-0,089147
4,207529	9,632867	5,88	-0,088671
4,208466	9,205339	5,93	-0,088856
4,209438	11,462234	6,00	-0,087877
4,210428	11,827882	6,05	-0,087718
4,211567	12,924827	6,10	-0,087242
4,212498	14,693440	6,17	-0,086475
4,213453	15,608124	6,23	-0,086078
4,214518	15,424737	6,29	-0,086157
4,215481	16,949210	6,35	-0,085496
4,216494	17,070718	6,40	-0,085443
4,217432	18,839331	6,47	-0,084675
4,218487	20,424557	6,52	-0,083987
4,219495	20,607944	6,57	-0,083908
4,220409	22,436186	6,65	-0,083114
4,221491	22,314678	6,70	-0,083167
4,222471	24,570448	6,76	-0,082188
4,223468	24,448940	6,81	-0,082241
4,224492	26,155674	6,87	-0,081500
4,225500	26,155674	6,92	-0,081500
4,226458	27,375252	6,97	-0,080971
4,227506	29,691775	7,04	-0,079965
4,228475	29,204619	7,10	-0,080177
4,229497	30,362318	7,15	-0,079674
4,230453	31,521142	7,20	-0,079171
4,231472	33,350509	7,27	-0,078377
4,232444	34,874982	7,32	-0,077716
4,233474	34,874982	7,37	-0,077716
4,234472	36,703224	7,43	-0,076922
4,235527	37,068872	7,48	-0,076764
4,236444	37,130751	7,53	-0,076737
4,237438	38,044310	7,58	-0,076340
4,238395	40,422712	7,64	-0,075308
4,239476	40,057064	7,70	-0,075467
4,240404	42,129446	7,75	-0,074567
4,241516	43,349024	7,81	-0,074038
4,242471	44,447095	7,88	-0,073562
4,243447	43,958813	7,93	-0,073773
4,244495	45,848934	7,98	-0,072953
4,245456	46,824372	8,03	-0,072530
4,246458	47,678301	8,08	-0,072159
4,247515	48,592985	8,14	-0,071762
4,248486	50,360473	8,20	-0,070995
4,249456	51,337036	8,27	-0,070571
4,250497	52,738875	8,32	-0,069963
4,251505	52,373227	8,37	-0,070122
4,252463	54,140715	8,42	-0,069354
4,253446	55,116152	8,47	-0,068931
4,254492	55,786695	8,52	-0,068640
4,255476	56,092715	8,57	-0,068507
4,256479	58,409238	8,64	-0,067502
4,257462	58,714133	8,69	-0,067370
4,258457	60,420867	8,74	-0,066629
4,259475	60,360113	8,79	-0,066655
4,260482	61,214043	8,85	-0,066285
4,261501	63,407933	8,90	-0,065333
4,262506	64,566757	8,95	-0,064830
4,263524	65,542195	9,03	-0,064406
4,264444	65,115792	9,08	-0,064591
4,265514	67,371562	9,13	-0,063612
4,266428	68,225491	9,18	-0,063242
4,267436	69,445069	9,23	-0,062712
4,268442	70,297874	9,28	-0,062342
4,268511	71,761593	9,34	-0,061707
4,268471	71,517452	9,42	-0,061813
4,268479	71,395944	9,47	-0,061866
4,268463	71,517452	9,52	-0,061813
4,268505	72,127241	9,57	-0,061548
4,268461	71,883101	9,62	-0,061654
4,268476	71,273311	9,69	-0,061919
4,268495	71,700839	9,75	-0,061733
4,268452	72,066487	9,80	-0,061575
4,268506	71,578206	9,87	-0,061787
4,268448	71,335190	9,92	-0,061892
4,268478	70,786155	9,97	-0,062130
4,268536	71,761593	10,02	-0,061707
4,268420	72,066487	10,07	-0,061575
4,268454	71,091050	10,12	-0,061998
4,268467	71,578206	10,17	-0,061787
4,268460	71,944979	10,22	-0,061627
4,268494	70,907663	10,28	-0,062078
4,268482	71,456698	10,34	-0,061839
4,268478	71,578206	10,39	-0,061787
4,268443	71,822347	10,45	-0,061681
4,268486	71,335190	10,50	-0,061892
4,268465	71,517452	10,55	-0,061813
4,268460	70,846909	10,62	-0,062104
4,268505	71,517452	10,67	-0,061813
4,268468	70,481261	10,72	-0,062263
4,268441	71,578206	10,77	-0,061787
4,268530	71,335190	10,84	-0,061892
4,268491	71,578206	10,89	-0,061787
4,268505	70,725401	10,94	-0,062157
4,268448	71,395944	11,00	-0,061866
4,268410	70,786155	11,06	-0,062130
4,268454	71,212558	11,12	-0,061945
4,268487	71,091050	11,17	-0,061998
4,268458	71,273311	11,22	-0,061919
4,268470	71,456698	11,27	-0,061839
4,268464	71,638960	11,33	-0,061760
4,268481	71,395944	11,38	-0,061866
4,268494	71,517452	11,44	-0,061813
4,268441	71,029171	11,49	-0,062025
4,268472	71,335190	11,54	-0,061892
4,268487	71,761593	11,59	-0,061707
4,268454	70,481261	11,64	-0,062263
4,268407	71,395944	11,70	-0,061866
4,268510	71,335190	11,75	-0,061892
4,268429	71,273311	11,81	-0,061919
4,268518	70,968417	11,87	-0,062051
4,268493	71,578206	11,93	-0,061787
4,268455	70,237120	11,98	-0,062369
4,268460	70,786155	12,05	-0,062130
4,268432	71,578206	12,10	-0,061787
4,268467	71,335190	12,15	-0,061892
4,268497	70,968417	12,22	-0,062051
4,268505	70,846909	12,27	-0,062104
4,268457	71,212558	12,33	-0,061945
4,268500	71,335190	12,38	-0,061892
4,268469	70,907663	12,44	-0,062078
4,268508	71,091050	12,49	-0,061998
4,268480	71,091050	12,54	-0,061998
4,268468	71,212558	12,61	-0,061945
4,268437	71,273311	12,68	-0,061919
4,268481	70,907663	12,73	-0,062078
4,268476	71,029171	12,80	-0,062025
4,268427	71,761593	12,87	-0,061707
4,268475	71,091050	12,94	-0,061998
4,268447	71,151804	13,01	-0,061972
4,268499	71,395944	13,08	-0,061866
4,268502	71,212558	13,13	-0,061945
4,268501	71,578206	13,20	-0,061787
4,268434	70,968417	13,25	-0,062051
4,268434	70,846909	13,31	-0,062104
4,268467	71,151804	13,38	-0,061972
4,268458	70,907663	13,44	-0,062078
4,268450	71,212558	13,51	-0,061945
4,268471	71,029171	13,56	-0,062025
4,268475	71,395944	13,61	-0,061866
4,268443	71,091050	13,66	-0,061998
4,268535	70,420507	13,71	-0,062289
4,268454	71,212558	13,77	-0,061945
4,268442	71,029171	13,83	-0,062025
4,268487	70,786155	13,88	-0,062130
4,268475	71,273311	13,93	-0,061919
4,268481	71,273311	13,98	-0,061919
4,268429	70,907663	14,03	-0,062078
4,268414	71,273311	14,08	-0,061919
4,268506	71,578206	14,13	-0,061787
4,268421	71,273311	14,18	-0,061919
4,268429	71,335190	14,24	-0,061892
4,268437	71,151804	14,29	-0,061972
4,268527	71,273311	14,34	-0,061919
4,268494	71,029171	14,39	-0,062025
4,268418	70,968417	14,45	-0,062051
4,268393	71,638960	14,49	-0,061760
4,268478	71,456698	14,54	-0,061839
4,268473	70,420507	14,60	-0,062289
4,268508	71,151804	14,65	-0,061972
4,268466	71,395944	14,71	-0,061866
4,268495	71,151804	14,76	-0,061972
4,268416	71,091050	14,81	-0,061998
4,268447	71,335190	14,86	-0,061892
4,267470	70,725401	14,91	-0,062157
4,266450	71,091050	14,96	-0,061998
4,265454	69,505823	15,03	-0,062686
4,264439	68,346999	15,10	-0,063189
4,263418	67,066667	15,16	-0,063745
4,262534	65,969722	15,23	-0,064221
4,261505	66,273492	15,29	-0,064089
4,260480	64,201109	15,35	-0,064988
4,259514	63,104164	15,40	-0,065464
4,258475	62,555129	15,48	-0,065703
4,257425	62,555129	15,54	-0,065703
4,256479	60,909148	15,59	-0,066417
4,255461	58,835640	15,66	-0,067317
4,254498	59,079781	15,72	-0,067211
4,253504	57,799449	15,78	-0,067767
4,252432	55,665188	15,85	-0,068693
4,251423	56,030836	15,91	-0,068534
4,250428	53,775067	15,97	-0,069513
4,249500	52,799629	16,03	-0,069937
4,248484	52,983016	16,10	-0,069857
4,247450	51,337036	16,15	-0,070571
4,246480	50,238965	16,21	-0,071048
4,245486	49,202774	16,26	-0,071498
4,244434	48,714493	16,31	-0,071709
4,243499	46,947005	16,37	-0,072477
4,242519	45,727427	16,42	-0,073006
4,241471	44,629356	16,48	-0,073482
4,240468	44,142200	16,53	-0,073694
4,239491	42,983376	16,58	-0,074197
4,238476	42,068692	16,65	-0,074594
4,237477	41,824552	16,70	-0,074700
4,236397	40,544220	16,76	-0,075255
4,235423	39,691415	16,81	-0,075625
4,234513	37,557154	16,87	-0,076552
4,233472	37,374892	16,93	-0,076631
4,232463	36,398329	16,98	-0,077055
4,231519	34,570087	17,05	-0,077848
4,230523	34,447455	17,10	-0,077901
4,229487	32,740720	17,16	-0,078642
4,228470	32,009424	17,21	-0,078959
4,227489	31,032861	17,27	-0,079383
4,226432	30,850599	17,32	-0,079462
4,226427	28,899725	17,38	-0,080309
4,227440	28,777092	17,44	-0,080362
4,228450	28,411443	17,49	-0,080521
4,229483	30,850599	17,54	-0,079462
4,230428	31,277002	17,59	-0,079277
4,231455	33,045615	17,64	-0,078510
4,232471	32,557334	17,69	-0,078722
4,233495	35,057244	17,75	-0,077637
4,234444	36,155314	17,80	-0,077160
4,235480	36,093435	17,85	-0,077187
4,236434	37,740540	17,90	-0,076472
4,237427	38,958993	17,95	-0,075943
4,238470	39,996310	18,01	-0,075493
4,239504	39,996310	18,06	-0,075493
4,240504	41,154009	18,11	-0,074991
4,241558	42,740360	18,16	-0,074302
4,242481	42,922622	18,21	-0,074223
4,243470	43,837306	18,27	-0,073826
4,244480	44,751989	18,32	-0,073429
4,245441	47,007758	18,37	-0,072450
4,246464	48,104704	18,42	-0,071974
4,247470	48,104704	18,47	-0,071974
4,248501	48,471477	18,52	-0,071815
4,249458	49,873317	18,57	-0,071207
4,250441	51,092895	18,63	-0,070677
4,251455	51,884946	18,68	-0,070333
4,252461	53,958453	18,74	-0,069434
4,253421	53,714313	18,79	-0,069540
4,254474	55,786695	18,84	-0,068640
4,255482	56,274977	18,89	-0,068428
4,256468	56,519117	18,94	-0,068322
4,257456	59,323922	19,00	-0,067105
4,258467	59,506183	19,05	-0,067026
4,259465	59,994465	19,10	-0,066814
4,260425	61,517812	19,15	-0,066153
4,261521	63,164918	19,20	-0,065438
4,262456	63,956968	19,27	-0,065094
4,263445	64,201109	19,32	-0,064988
4,264480	65,115792	19,37	-0,064591
4,265512	66,883281	19,43	-0,063824
4,266458	66,761773	19,48	-0,063877
4,267472	67,737210	19,53	-0,063454
4,268489	69,688085	19,58	-0,062607
4,269468	70,968417	19,63	-0,062051
4,270470	71,883101	19,69	-0,061654
4,271464	72,614397	19,75	-0,061337
4,272435	74,383011	19,80	-0,060569
4,273479	74,504518	19,85	-0,060517
4,274443	76,028991	19,90	-0,059855
4,275526	76,578026	19,95	-0,059617
4,276424	77,066307	20,01	-0,059405
4,277491	78,407393	20,06	-0,058823
4,278469	80,114127	20,11	-0,058082
4,279514	79,625846	20,16	-0,058294
4,280454	82,125756	20,23	-0,057209
4,281455	82,918932	20,28	-0,056865
4,282478	82,979686	20,33	-0,056838
4,283492	85,053193	20,38	-0,055938
4,284503	86,150139	20,45	-0,055462
4,285506	86,150139	20,50	-0,055462
4,286489	87,613857	20,55	-0,054827
4,287473	89,686240	20,61	-0,053928
4,288482	90,356783	20,68	-0,053637
4,289435	90,418662	20,73	-0,053610
4,290434	90,661677	20,78	-0,053504
4,291450	92,551798	20,83	-0,052684
4,292470	94,564552	20,88	-0,051811
4,293422	95,174341	20,94	-0,051546
4,294499	96,392794	21,01	-0,051017
4,295490	97,307478	21,06	-0,050620
4,296492	97,795759	21,11	-0,050408
4,297513	98,953458	21,16	-0,049906
4,298450	100,295669	21,22	-0,049323
4,299462	101,636755	21,27	-0,048741
4,300419	101,880895	21,32	-0,048635
4,301483	102,795579	21,37	-0,048238
4,302426	104,441559	21,45	-0,047524
4,303463	105,538504	21,52	-0,047048
4,304480	106,331680	21,57	-0,046704
4,305504	106,392434	21,62	-0,046677
4,306463	108,587450	21,69	-0,045725
4,307487	109,440254	21,74	-0,045354
4,308477	110,477571	21,80	-0,044904
4,309423	110,843219	21,85	-0,044746
4,310457	112,002043	21,90	-0,044243
4,311499	113,769531	21,96	-0,043476
4,312478	113,220496	22,01	-0,043714
4,313494	114,744969	22,06	-0,043052
4,314469	116,208687	22,11	-0,042417
4,315477	116,879230	22,17	-0,042126
4,316451	118,403703	22,23	-0,041464
4,317466	120,110437	22,29	-0,040724
4,318473	119,195754	22,35	-0,041121
4,319482	120,841734	22,40	-0,040406
4,320419	121,269261	22,45	-0,040221
4,321493	123,341644	22,51	-0,039321
4,322498	123,464277	22,56	-0,039268
4,323440	125,597413	22,65	-0,038342
4,324440	125,415152	22,70	-0,038421
4,325466	126,207202	22,75	-0,038078
4,326443	127,182640	22,80	-0,037654
4,327438	128,767866	22,86	-0,036966
4,328484	129,926690	22,91	-0,036463
4,329460	131,572671	22,98	-0,035749
4,330481	131,756057	23,05	-0,035669
4,331466	133,523546	23,10	-0,034902
4,332457	134,011827	23,15	-0,034690
4,333464	133,890319	23,20	-0,034743
4,334482	135,841194	23,27	-0,033896
4,335442	136,633245	23,32	-0,033553
4,336479	138,096963	23,36	-0,032917
4,337433	138,341104	23,42	-0,032812
4,338468	139,682190	23,48	-0,032229
4,339506	139,865576	23,53	-0,032150
4,340441	141,877205	23,59	-0,031277
4,341485	142,791889	23,64	-0,030880
4,342518	144,193728	23,69	-0,030271
4,343463	144,986904	23,76	-0,029927
4,344469	145,839709	23,82	-0,029557
4,345428	147,303427	23,89	-0,028922
4,346439	147,973970	23,94	-0,028631
4,347432	148,339619	23,99	-0,028472
4,348472	150,168986	24,04	-0,027678
4,349497	150,473880	24,10	-0,027546
4,350444	153,156052	24,16	-0,026382
4,351490	153,217931	24,22	-0,026355
4,352441	154,924665	24,27	-0,025614
4,353465	155,229560	24,32	-0,025482
4,354491	156,083489	24,37	-0,025111
4,355430	157,546083	24,44	-0,024477
4,356498	158,583399	24,50	-0,024026
4,357462	159,375450	24,55	-0,023683
4,358459	160,290134	24,61	-0,023286
4,359465	160,899923	24,66	-0,023021
4,360456	162,667411	24,71	-0,022254
4,361466	164,131129	24,77	-0,021619
4,362435	164,436024	24,83	-0,021486
4,363494	165,228075	24,88	-0,021143
4,364493	165,472215	24,93	-0,021037
4,365475	166,326145	24,98	-0,020666
4,366371	168,521160	25,05	-0,019713
4,367439	168,642668	25,10	-0,019661
4,368436	170,837684	25,16	-0,018708
4,369472	170,593543	25,22	-0,018814
4,370444	172,788558	25,27	-0,017861
4,371464	172,667051	25,32	-0,017914
4,372389	174,922820	25,38	-0,016935
4,373439	174,922820	25,43	-0,016935
4,374482	177,301222	25,49	-0,015903
4,375483	176,812941	25,54	-0,016115
4,376399	178,154027	25,59	-0,015533
4,377437	180,226409	25,66	-0,014633
4,378464	181,202972	25,71	-0,014209
4,379433	181,385234	25,76	-0,014130
4,380452	182,604812	25,84	-0,013601
4,381449	182,788198	25,89	-0,013521
4,382456	183,945898	25,94	-0,013019
4,383435	185,958651	26,01	-0,012146
4,384420	186,872210	26,06	-0,011749
4,385449	188,457436	26,12	-0,011061
4,386497	188,763456	26,17	-0,010928
4,387476	190,591698	26,23	-0,010135
4,388496	191,019225	26,28	-0,009949
4,389456	192,116170	26,34	-0,009473
4,390447	192,847467	26,39	-0,009156
4,391396	193,822905	26,46	-0,008732
4,392449	193,945538	26,51	-0,008679
4,393448	195,470010	26,56	-0,008018
4,394425	197,115990	26,62	-0,007303
4,395448	197,725779	26,67	-0,007039
4,396430	198,274815	26,72	-0,006800
4,397494	199,798162	26,78	-0,006139
4,398428	200,225689	26,83	-0,005954
4,399463	201,201127	26,88	-0,005530
4,400516	201,140373	26,93	-0,005557
4,401398	204,005931	27,02	-0,004313
4,402449	203,761791	27,07	-0,004419
4,403450	205,529279	27,12	-0,003652
4,404478	206,565470	27,17	-0,003202
4,405435	207,907681	27,22	-0,002620
4,406444	209,431029	27,29	-0,001958
4,407424	208,699732	27,34	-0,002276
4,408447	211,870185	27,41	-0,000900
4,409407	211,930939	27,46	-0,000874
4,410405	211,870185	27,52	-0,000900
4,411429	213,943692	27,57	0,000000
4,412439	215,040638	27,63	0,000476
4,413428	215,894567	27,68	0,000847
4,414489	215,650427	27,73	0,000741
4,415462	217,784688	27,78	0,001667
4,416477	218,576739	27,84	0,002011
4,417450	219,309161	27,89	0,002329
4,418473	220,894387	27,95	0,003017
4,419448	221,320790	28,01	0,003202
4,420448	221,930579	28,06	0,003466
4,421411	223,820700	28,11	0,004287
4,422430	224,307856	28,16	0,004498
4,423420	225,771574	28,24	0,005133
4,424431	227,113785	28,30	0,005716
4,425375	227,173414	28,35	0,005742
4,426466	228,881273	28,41	0,006483
4,427472	229,430309	28,46	0,006721
4,428424	230,222359	28,51	0,007065
4,429451	230,588008	28,57	0,007224
4,430384	232,417375	28,63	0,008018
4,431422	234,002601	28,68	0,008706
4,432428	234,794652	28,74	0,009049
4,433406	234,917285	28,79	0,009103
4,434452	236,379878	28,84	0,009737
4,435449	236,928913	28,90	0,009976
4,435459	237,600581	28,95	0,010267
4,435457	238,879788	29,00	0,010822
4,435452	239,246562	29,06	0,010981
4,435392	239,123929	29,11	0,010928
4,435476	238,392632	29,16	0,010611
4,435421	238,941667	29,21	0,010849
4,435463	238,453386	29,26	0,010637
4,435424	239,246562	29,33	0,010981
4,435495	238,636773	29,39	0,010717
4,435489	239,489577	29,44	0,011087
4,435474	239,184683	29,49	0,010955
4,435439	239,063175	29,55	0,010902
4,435477	238,758281	29,61	0,010770
4,435402	238,758281	29,66	0,010770
4,435446	238,758281	29,70	0,010770
4,435441	238,453386	29,75	0,010637
4,435458	238,148492	29,82	0,010505
4,435431	238,819034	29,87	0,010796
4,435479	238,697527	29,92	0,010743
4,435491	238,879788	29,97	0,010822
4,435448	238,819034	30,02	0,010796
4,435502	238,758281	30,07	0,010770
4,435458	238,576019	30,13	0,010690
4,435421	238,636773	30,18	0,010717
4,435449	238,636773	30,25	0,010717
4,435480	238,697527	30,30	0,010743
4,435469	238,514140	30,36	0,010664
4,435439	238,331878	30,41	0,010584
4,435410	238,879788	30,47	0,010822
4,435451	238,392632	30,53	0,010611
4,435426	238,636773	30,58	0,010717
4,435447	238,819034	30,64	0,010796
4,435474	238,758281	30,69	0,010770
4,435413	238,819034	30,74	0,010796
4,435415	238,819034	30,79	0,010796
4,435375	238,697527	30,85	0,010743
4,435399	238,514140	30,90	0,010664
4,435474	239,002421	30,95	0,010875
4,435445	239,489577	31,02	0,011087
4,435416	238,392632	31,07	0,010611
4,435450	239,063175	31,12	0,010902
4,435417	238,941667	31,17	0,010849
4,435381	238,636773	31,22	0,010717
4,435467	238,758281	31,27	0,010770
4,435444	238,514140	31,32	0,010664
4,435430	238,819034	31,39	0,010796
4,435463	238,819034	31,45	0,010796
4,435441	238,697527	31,51	0,010743
4,435449	237,417195	31,56	0,010188
4,435403	238,148492	31,62	0,010505
4,435464	238,576019	31,67	0,010690
4,435395	238,392632	31,74	0,010611
4,435432	238,941667	31,81	0,010849
4,435423	238,453386	31,89	0,010637
4,435409	238,392632	31,94	0,010611
4,435378	239,063175	31,99	0,010902
4,435447	238,331878	32,05	0,010584
4,435419	238,636773	32,10	0,010717
4,435469	238,576019	32,16	0,010690
4,435493	238,819034	32,22	0,010796
4,435462	238,697527	32,27	0,010743
4,435405	238,269999	32,34	0,010558
4,435473	238,697527	32,39	0,010743
4,435397	238,697527	32,48	0,010743
4,435438	238,392632	32,53	0,010611
4,435414	238,636773	32,61	0,010717
4,435459	238,392632	32,68	0,010611
4,435446	238,209245	32,75	0,010531
4,435454	237,538702	32,80	0,010240
4,435429	237,782843	32,87	0,010346
4,435375	238,636773	32,96	0,010717
4,435455	238,392632	33,04	0,010611
4,435448	238,514140	33,10	0,010664
4,435432	238,758281	33,16	0,010770
4,435469	238,453386	33,24	0,010637
4,435472	239,184683	33,30	0,010955
4,435474	238,331878	33,35	0,010584
4,435429	238,576019	33,42	0,010690
4,435454	238,697527	33,47	0,010743
4,435423	238,697527	33,52	0,010743
4,435486	238,697527	33,57	0,010743
4,435367	239,307316	33,62	0,011008
4,435442	238,879788	33,67	0,010822
4,435448	238,819034	33,72	0,010796
4,435431	238,697527	33,77	0,010743
4,435425	238,636773	33,82	0,010717
4,435382	238,453386	33,88	0,010637
4,435449	238,636773	33,93	0,010717
4,435456	238,879788	33,98	0,010822
4,435464	238,819034	34,03	0,010796
4,435392	238,636773	34,08	0,010717
4,435466	238,758281	34,13	0,010770
4,435453	238,453386	34,18	0,010637
4,435421	238,697527	34,24	0,010743
4,435413	239,002421	34,29	0,010875
4,435441	238,941667	34,34	0,010849
4,435469	238,819034	34,39	0,010796
4,435355	238,941667	34,44	0,010849
4,435427	238,636773	34,49	0,010717
4,435427	238,576019	34,54	0,010690
4,434438	238,697527	34,59	0,010743
4,433432	238,576019	34,65	0,010690
4,432438	236,928913	34,71	0,009976
4,431427	235,587828	34,79	0,009394
4,430387	235,953476	34,85	0,009552
4,429449	233,332058	34,91	0,008415
4,428436	232,600761	34,99	0,008097
4,427441	231,441937	35,08	0,007594
4,426470	231,686078	35,14	0,007700
4,425463	229,307676	35,21	0,006668
4,424436	229,369555	35,27	0,006695
4,423392	227,417555	35,33	0,005848
4,422418	227,905836	35,39	0,006060
4,421467	225,650067	35,46	0,005081
4,420416	224,613875	35,53	0,004631
4,419429	223,881453	35,58	0,004313
4,418466	222,174719	35,66	0,003572
4,417441	222,174719	35,71	0,003572
4,416485	220,528739	35,77	0,002858
4,415416	219,917825	35,84	0,002593
4,414412	219,674809	35,89	0,002487
4,413460	217,358286	35,96	0,001482
4,412442	215,773059	36,01	0,000794
4,411461	215,468165	36,07	0,000662
4,410400	214,674989	36,12	0,000317
4,409419	213,821060	36,19	-0,000053
4,408507	212,907501	36,27	-0,000450
4,407464	211,504536	36,32	-0,001059
4,406457	211,383029	36,38	-0,001111
4,405414	210,163450	36,43	-0,001641
4,404442	208,151822	36,49	-0,002514
4,403398	208,455591	36,54	-0,002382
4,402464	207,358646	36,59	-0,002858
4,401456	205,042123	36,68	-0,003863
4,400483	204,919490	36,73	-0,003917
4,399452	202,602967	36,79	-0,004922
4,398517	202,786353	36,84	-0,004842
4,397458	201,627529	36,90	-0,005345
4,396456	200,712846	36,95	-0,005742
4,395455	200,347197	37,01	-0,005901
4,394400	198,274815	37,06	-0,006800
4,393484	197,968795	37,11	-0,006933
4,392425	196,384694	37,16	-0,007621
4,391475	196,688463	37,21	-0,007489
4,390463	194,494573	37,27	-0,008441
4,389487	193,762151	37,32	-0,008759
4,388486	192,481819	37,37	-0,009314
4,387445	192,725959	37,42	-0,009208
4,386414	190,286803	37,49	-0,010267
4,385445	188,763456	37,54	-0,010928
4,384418	189,129104	37,59	-0,010770
4,383456	186,934089	37,65	-0,011722
4,382486	186,629194	37,70	-0,011854
4,381439	184,799827	37,76	-0,012648
4,380412	183,580249	37,81	-0,013178
4,379472	182,788198	37,86	-0,013521
4,378443	182,604812	37,91	-0,013601
4,377503	181,385234	37,98	-0,014130
4,376430	179,860761	38,05	-0,014792
4,375468	178,580429	38,10	-0,015348
4,374411	178,398167	38,15	-0,015427
4,373422	177,544238	38,20	-0,015797
4,372445	176,019765	38,27	-0,016459
4,371381	175,898257	38,32	-0,016512
4,370451	173,947383	38,37	-0,017358
4,369460	172,788558	38,42	-0,017861
4,368466	171,386719	38,48	-0,018470
4,367485	170,959191	38,53	-0,018655
4,366470	170,227895	38,58	-0,018973
4,365458	168,398528	38,66	-0,019767
4,364425	167,423090	38,71	-0,020190
4,363442	166,874055	38,76	-0,020428
4,362469	167,545723	38,81	-0,020137
4,361418	164,314516	38,86	-0,021539
4,360508	164,314516	38,91	-0,021539
4,359520	163,460586	38,97	-0,021910
4,358474	160,960676	39,03	-0,022995
4,357433	159,985239	39,09	-0,023418
4,356430	160,106747	39,14	-0,023365
4,355488	158,583399	39,19	-0,024026
4,354429	157,485329	39,24	-0,024503
4,353439	157,241188	39,30	-0,024609
4,352429	156,021610	39,35	-0,025138
4,351500	154,193368	39,40	-0,025932
4,351438	152,424755	39,46	-0,026699
4,352457	152,546263	39,52	-0,026646
4,353508	152,485509	39,57	-0,026673
4,354460	153,217931	39,62	-0,026355
4,355467	155,777470	39,67	-0,025244
4,356441	156,144243	39,72	-0,025085
4,357492	157,180435	39,77	-0,024635
4,358466	158,643028	39,82	-0,024000
4,359481	159,496958	39,87	-0,023630
4,360470	161,082184	39,92	-0,022942
4,361422	162,667411	39,97	-0,022254
4,362459	163,155692	40,02	-0,022042
4,363475	164,008497	40,09	-0,021672
4,364478	164,740918	40,16	-0,021354
4,365450	166,082004	40,21	-0,020772
4,366517	167,301582	40,26	-0,020243
4,367500	168,337774	40,31	-0,019793
4,368465	168,581914	40,36	-0,019687
4,369461	169,923000	40,41	-0,019105
4,370473	171,021070	40,47	-0,018628
4,371411	172,483664	40,52	-0,017994
4,372433	172,057262	40,56	-0,018179
4,373485	174,739433	40,62	-0,017015
4,374492	175,166961	40,68	-0,016829
4,375485	176,752187	40,73	-0,016141
4,376424	176,568800	40,78	-0,016221
4,377435	178,214781	40,83	-0,015506
4,378473	178,519675	40,88	-0,015374
4,379455	180,836199	40,95	-0,014369
4,380436	180,714691	40,99	-0,014421
4,381487	181,812761	41,05	-0,013945
4,382510	183,397987	41,09	-0,013257
4,383438	184,250792	41,15	-0,012887
4,384503	185,470370	41,21	-0,012357
4,385464	186,568440	41,26	-0,011881
4,386432	187,116350	41,31	-0,011643
4,387487	187,481999	41,36	-0,011484
4,388464	190,226049	41,43	-0,010293
4,389491	190,347557	41,48	-0,010241
4,390442	191,201487	41,53	-0,009870
4,391477	193,152362	41,58	-0,009023
4,392439	194,127799	41,63	-0,008600
4,393504	194,189678	41,68	-0,008573
4,394440	195,530764	41,73	-0,007991
4,395448	197,665026	41,80	-0,007065
4,396463	197,298252	41,85	-0,007224
4,397495	198,640463	41,90	-0,006642
4,398410	199,676654	41,95	-0,006192
4,399453	200,834353	42,01	-0,005689
4,400426	201,444142	42,06	-0,005425
4,401468	202,358826	42,11	-0,005028
4,402444	203,699912	42,16	-0,004446
4,403413	204,309701	42,21	-0,004181
4,404455	206,261701	42,28	-0,003334
4,405457	207,175259	42,33	-0,002938
4,406457	208,212576	42,38	-0,002487
4,407434	208,517470	42,43	-0,002355
4,408437	209,431029	42,48	-0,001958
4,409469	211,687923	42,55	-0,000979
4,410525	211,687923	42,60	-0,000979
4,411428	212,784868	42,65	-0,000503
4,412410	211,992818	42,70	-0,000847
4,413450	214,614235	42,77	0,000291
4,414453	215,224024	42,82	0,000556
4,415426	215,650427	42,87	0,000741
4,416436	217,052266	42,93	0,001349
4,417518	219,125774	42,98	0,002249
4,418507	220,161965	43,05	0,002699
4,419473	220,955141	43,10	0,003043
4,420482	222,052086	43,16	0,003519
4,421424	223,210910	43,21	0,004022
4,422415	224,491242	43,28	0,004578
4,423479	224,674629	43,33	0,004657
4,424483	226,502871	43,39	0,005451
4,425451	227,051906	43,44	0,005689
4,426426	226,991152	43,49	0,005663
4,427525	229,063535	43,57	0,006562
4,428478	229,735203	43,62	0,006854
4,429416	230,466500	43,67	0,007171
4,430448	231,990972	43,73	0,007833
4,431468	231,625324	43,78	0,007674
4,432439	234,429003	43,84	0,008891
4,433425	234,612390	43,89	0,008970
4,434433	235,770089	43,96	0,009473
4,435451	236,136863	44,01	0,009632
4,436504	237,904351	44,07	0,010399
4,437427	238,392632	44,12	0,010611
4,438435	239,733718	44,17	0,011193
4,439466	241,502331	44,24	0,011960
4,440428	241,379698	44,29	0,011907
4,441472	243,087558	44,34	0,012648
4,442455	244,855046	44,41	0,013416
4,443420	244,245257	44,46	0,013151
4,444431	246,074624	44,52	0,013945
4,445424	246,928553	44,57	0,014315
4,446388	248,025499	44,62	0,014792
4,447385	249,549971	44,68	0,015453
4,448466	250,343147	44,73	0,015797
4,449425	251,744987	44,80	0,016406
4,450486	251,744987	44,85	0,016406
4,451471	253,330213	44,90	0,017094
4,452447	254,366404	44,95	0,017543
4,453471	255,769369	45,03	0,018152
4,454478	256,866314	45,10	0,018628
4,455483	256,805561	45,15	0,018602
4,456427	258,512295	45,20	0,019343
4,457457	258,512295	45,25	0,019343
4,458423	259,487732	45,30	0,019766
4,459465	261,195592	45,36	0,020507
4,460423	262,171029	45,41	0,020931
4,461423	263,999271	45,48	0,021724
4,462424	263,756255	45,53	0,021619
4,463457	265,218849	45,58	0,022253
4,464455	266,743322	45,64	0,022915
4,465452	266,743322	45,69	0,022915
4,466462	269,243232	45,75	0,024000
4,467429	268,877583	45,80	0,023841
4,468416	270,402056	45,85	0,024503
4,469413	271,011845	45,91	0,024768
4,470410	273,084227	45,97	0,025667
4,471456	274,608700	46,03	0,026329
4,472428	274,608700	46,08	0,026329
4,473416	275,828278	46,13	0,026858
4,474455	275,828278	46,18	0,026858
4,475457	277,413504	46,24	0,027546
4,476364	278,084047	46,29	0,027837
4,477414	279,730028	46,34	0,028551
4,478454	280,644711	46,40	0,028948
4,479523	281,010360	46,45	0,029107
4,480452	281,925043	46,50	0,029504
4,481492	284,120059	46,56	0,030457
4,482417	285,461145	46,63	0,031039
4,483485	285,949426	46,68	0,031250
4,484424	285,826793	46,73	0,031197
4,485452	287,472773	46,78	0,031912
4,486462	288,754230	46,83	0,032468
4,487433	290,400211	46,88	0,033182
4,488420	291,131507	46,94	0,033500
4,489419	292,351085	47,00	0,034029
4,490384	292,472593	47,05	0,034082
4,491456	293,387277	47,10	0,034479
4,492461	294,546101	47,15	0,034981
4,493403	295,703800	47,20	0,035484
4,494475	297,289026	47,25	0,036172
4,495441	297,838062	47,32	0,036410
4,496468	298,935007	47,37	0,036886
4,497399	299,728183	47,42	0,037230
4,498453	301,069268	47,49	0,037812
4,499480	300,521358	47,54	0,037575
4,500419	301,801690	47,60	0,038130
4,501399	304,362354	47,65	0,039242
4,502404	304,849510	47,70	0,039453
4,503445	305,886827	47,75	0,039903
4,504484	306,983772	47,81	0,040379
4,505417	307,166034	47,88	0,040458
4,506390	309,300295	47,94	0,041385
4,507500	310,154225	48,00	0,041755
4,508437	311,008155	48,05	0,042126
4,509474	310,398365	48,10	0,041861
4,510429	313,080537	48,16	0,043025
4,511456	313,203170	48,22	0,043079
4,512393	315,641201	48,28	0,044137
4,513415	316,129482	48,33	0,044349
4,514449	316,007975	48,38	0,044296
4,515378	316,677392	48,43	0,044586
4,516423	318,446006	48,49	0,045354
4,517439	318,690146	48,54	0,045460
4,518420	319,421443	48,59	0,045777
4,519389	321,982107	48,65	0,046889
4,520442	322,165494	48,70	0,046968
4,521390	322,896790	48,75	0,047286
4,522455	325,580087	48,81	0,048450
4,523413	326,127997	48,86	0,048688
4,524461	327,104560	48,92	0,049112
4,525472	326,737786	48,97	0,048953
4,526410	328,323013	49,02	0,049641
4,527398	329,847485	49,07	0,050302
4,528427	330,213134	49,13	0,050461
4,529424	331,798360	49,19	0,051149
4,530384	332,470028	49,24	0,051440
4,531388	334,054129	49,29	0,052128
4,532395	334,847305	49,34	0,052472
4,533430	335,944250	49,41	0,052948
4,534419	336,309899	49,47	0,053107
4,535427	337,957004	49,52	0,053822
4,536428	338,993196	49,58	0,054271
4,537370	339,542231	49,63	0,054510
4,538464	340,029387	49,68	0,054721
4,539408	339,968633	49,73	0,054695
4,540389	342,529297	49,79	0,055806
4,541360	344,236031	49,86	0,056547
4,542356	344,358664	49,91	0,056600
4,543426	345,578242	49,96	0,057129
4,544420	347,224222	50,01	0,057844
4,545428	348,321168	50,08	0,058320
4,546423	348,747570	50,13	0,058505
4,547456	350,272042	50,20	0,059167
4,548380	350,821078	50,25	0,059405
4,549401	351,430867	50,30	0,059669
4,550382	353,381741	50,36	0,060516
4,551389	354,174917	50,41	0,060860
4,552411	355,820898	50,47	0,061575
4,553408	355,760144	50,52	0,061548
4,554336	356,796335	50,57	0,061998
4,555372	357,284616	50,62	0,062210
4,556418	359,174737	50,70	0,063030
4,557382	358,686456	50,75	0,062818
4,558437	361,064858	50,81	0,063851
4,559394	360,820718	50,86	0,063745
4,560352	362,405944	50,91	0,064433
4,561414	363,807784	50,96	0,065041
4,562383	365,027362	51,03	0,065570
4,563326	365,819412	51,08	0,065914
4,564410	366,978237	51,13	0,066417
4,565388	366,673342	51,18	0,066285
4,566338	369,783041	51,23	0,067634
4,567422	370,758479	51,30	0,068058
4,568408	371,002619	51,35	0,068164
4,569432	371,794670	51,41	0,068507
4,570415	372,465213	51,47	0,068798
4,571419	373,745545	51,52	0,069354
4,572367	375,027002	51,57	0,069910
4,573417	376,306209	51,63	0,070465
4,574386	377,525787	51,69	0,070995
4,575415	377,952189	51,74	0,071180
4,576420	378,379716	51,79	0,071365
4,577421	380,391345	51,85	0,072238
4,578438	381,001134	51,90	0,072503
4,579381	380,269837	51,95	0,072186
4,580420	382,404099	52,01	0,073112
4,581391	383,561798	52,06	0,073614
4,582353	385,086271	52,11	0,074276
4,583424	385,756813	52,16	0,074567
4,584413	387,281286	52,22	0,075229
4,585415	387,951829	52,28	0,075520
4,586401	389,232161	52,34	0,076075
4,587408	389,841950	52,39	0,076340
4,588406	390,207598	52,44	0,076499
4,589426	391,548684	52,49	0,077081
4,590439	393,073157	52,55	0,077742
4,591424	393,438805	52,61	0,077901
4,592393	395,207418	52,67	0,078668
4,593451	395,694574	52,72	0,078880
4,594350	396,548504	52,77	0,079250
4,595412	397,951469	52,82	0,079859
4,596446	399,292555	52,89	0,080441
4,597373	399,048414	52,94	0,080335
4,598432	400,023852	53,00	0,080759
4,599376	402,097359	53,05	0,081659
4,600429	403,072797	53,10	0,082082
4,601432	404,597269	53,15	0,082744
4,602366	404,840285	53,20	0,082849
4,602399	405,389320	53,26	0,083087
4,602387	406,487390	53,32	0,083564
4,602387	406,059863	53,37	0,083378
4,602348	406,669652	53,42	0,083643
4,602370	406,243250	53,47	0,083458
4,602402	406,974546	53,52	0,083775
4,602412	406,608898	53,57	0,083617
4,602404	406,548144	53,64	0,083590
4,602396	407,218687	53,70	0,083881
4,602378	406,364757	53,75	0,083511
4,602369	406,364757	53,81	0,083511
4,602410	406,304003	53,87	0,083484
4,602402	406,608898	53,92	0,083617
4,602391	406,730406	53,97	0,083669
4,602408	406,425511	54,02	0,083537
4,602418	406,182496	54,08	0,083432
4,602346	406,487390	54,13	0,083564
4,602439	405,633461	54,18	0,083193
4,602399	406,182496	54,24	0,083432
4,602323	406,548144	54,29	0,083590
4,602436	405,694214	54,34	0,083220
4,602400	406,608898	54,40	0,083617
4,602347	406,730406	54,45	0,083669
4,602362	405,938355	54,50	0,083326
4,602382	406,487390	54,56	0,083564
4,602334	406,548144	54,61	0,083590
4,602374	405,754968	54,66	0,083246
4,602400	406,182496	54,71	0,083432
4,602430	406,425511	54,76	0,083537
4,602405	406,121742	54,83	0,083405
4,602356	406,182496	54,88	0,083432
4,602390	406,243250	54,93	0,083458
4,602367	406,487390	54,98	0,083564
4,602382	406,121742	55,03	0,083405
4,602357	406,425511	55,09	0,083537
4,602396	406,182496	55,14	0,083432
4,602366	406,182496	55,19	0,083432
4,602367	406,487390	55,24	0,083564
4,602370	406,608898	55,31	0,083617
4,602336	406,121742	55,37	0,083405
4,602419	406,487390	55,41	0,083564
4,602341	406,121742	55,47	0,083405
4,602398	406,548144	55,52	0,083590
4,602415	406,243250	55,58	0,083458
4,602416	405,938355	55,62	0,083326
4,602381	405,389320	55,68	0,083087
4,602398	405,999109	55,73	0,083352
4,602362	406,304003	55,78	0,083484
4,602366	405,815722	55,83	0,083272
4,602350	406,243250	55,88	0,083458
4,602425	406,364757	55,95	0,083511
4,602403	406,059863	56,00	0,083378
4,602405	406,182496	56,06	0,083432
4,602331	405,999109	56,11	0,083352
4,602388	405,938355	56,16	0,083326
4,602371	406,669652	56,23	0,083643
4,602341	406,121742	56,28	0,083405
4,602400	406,059863	56,34	0,083378
4,602395	406,548144	56,40	0,083590
4,602368	406,608898	56,45	0,083617
4,602397	405,572707	56,50	0,083167
4,602370	406,548144	56,55	0,083590
4,602299	405,815722	56,60	0,083272
4,602464	406,487390	56,66	0,083564
4,602387	406,121742	56,73	0,083405
4,602358	406,243250	56,78	0,083458
4,602372	406,121742	56,85	0,083405
4,602361	406,182496	56,90	0,083432
4,602456	405,694214	56,96	0,083220
4,602384	405,938355	57,02	0,083326
4,602335	406,182496	57,09	0,083432
4,602380	406,243250	57,16	0,083458
4,602338	406,364757	57,22	0,083511
4,602392	405,694214	57,29	0,083220
4,602332	406,487390	57,34	0,083564
4,602357	406,182496	57,40	0,083432
4,602351	406,487390	57,48	0,083564
4,602374	405,815722	57,53	0,083272
4,602396	405,938355	57,59	0,083326
4,602368	405,815722	57,64	0,083272
4,602384	406,243250	57,69	0,083458
4,602364	405,938355	57,74	0,083326
4,602410	405,999109	57,80	0,083352
4,602409	406,608898	57,86	0,083617
4,602393	406,487390	57,91	0,083564
4,602395	406,608898	57,98	0,083617
4,602402	406,243250	58,03	0,083458
4,602382	406,304003	58,08	0,083484
4,602407	406,487390	58,14	0,083564
4,602376	406,853039	58,20	0,083723
4,602375	406,121742	58,25	0,083405
4,602369	406,364757	58,31	0,083511
4,602363	406,364757	58,37	0,083511
4,602377	406,669652	58,41	0,083643
4,602390	406,425511	58,47	0,083537
4,602379	405,511953	58,52	0,083141
4,602410	406,425511	58,57	0,083537
4,602382	405,328566	58,62	0,083061
4,602358	406,121742	58,67	0,083405
4,602408	406,243250	58,73	0,083458
4,601376	406,182496	58,79	0,083432
4,600418	406,121742	58,84	0,083405
4,599384	404,048234	58,92	0,082505
4,598323	404,048234	58,97	0,082505
4,597366	401,853219	59,04	0,081553
4,596364	401,182676	59,10	0,081262
4,595354	399,718957	59,16	0,080626
4,594425	398,804273	59,25	0,080229
4,593382	398,622012	59,30	0,080150
4,592363	396,976031	59,36	0,079436
4,591405	396,853399	59,43	0,079383
4,590338	394,597629	59,49	0,078404
4,589414	393,987840	59,54	0,078139
4,588330	392,646754	59,59	0,077557
4,587344	391,305669	59,66	0,076975
4,586345	391,244915	59,71	0,076949
4,585391	389,476301	59,77	0,076181
4,584316	388,500864	59,82	0,075758
4,583371	387,342040	59,89	0,075255
4,582358	386,366602	59,94	0,074832
4,581414	385,330411	60,01	0,074382
4,580354	384,415728	60,06	0,073985
4,579407	383,561798	60,12	0,073614
4,578403	383,317657	60,17	0,073508
4,577368	382,159958	60,22	0,073006
4,576386	380,635486	60,29	0,072344
4,575399	380,452099	60,34	0,072265
4,574409	378,379716	60,40	0,071365
4,573351	377,465033	60,45	0,070968
4,572394	377,343525	60,50	0,070916
4,571394	376,063193	60,56	0,070360
4,570403	374,111193	60,63	0,069513
4,569398	372,770107	60,68	0,068931
4,568397	373,136881	60,73	0,069090
4,567384	371,429021	60,78	0,068349
4,566428	370,697725	60,84	0,068031
4,565431	369,234006	60,89	0,067396
4,564391	368,502709	60,95	0,067079
4,563377	366,795975	60,99	0,066338
4,562406	365,881291	61,05	0,065941
4,561396	365,209623	61,10	0,065649
4,560450	365,393010	61,15	0,065729
4,559410	363,563643	61,20	0,064935
4,558373	362,344065	61,26	0,064406
4,557407	362,466698	61,31	0,064459
4,556368	360,332436	61,37	0,063533
4,555437	359,174737	61,42	0,063030
4,554313	358,868718	61,47	0,062897
4,553391	357,406124	61,52	0,062263
4,552391	356,612948	61,57	0,061918
4,551383	355,027722	61,64	0,061230
4,550301	354,479812	61,69	0,060993
4,549444	354,540566	61,74	0,061019
4,548340	353,260234	61,79	0,060463
4,547350	351,613128	61,87	0,059749
4,546414	350,821078	61,94	0,059405
4,545395	349,967148	61,99	0,059034
4,544412	347,894765	62,04	0,058135
4,543403	346,858574	62,09	0,057685
4,542434	346,065398	62,16	0,057341
4,541365	345,150715	62,21	0,056944
4,540443	344,724312	62,26	0,056759
4,539375	343,688121	62,31	0,056309
4,538430	341,858754	62,37	0,055515
4,537373	341,370473	62,42	0,055303
4,536407	339,602985	62,47	0,054536
4,535393	339,663738	62,52	0,054562
4,534429	338,809809	62,57	0,054192
4,533335	336,919688	62,63	0,053372
4,532422	335,091446	62,68	0,052578
4,531431	334,419778	62,73	0,052287
4,530396	334,176762	62,78	0,052181
4,529382	333,505094	62,83	0,051890
4,528438	330,762169	62,89	0,050699
4,527439	331,616098	62,94	0,051070
4,526439	330,639536	62,99	0,050646
4,525469	329,298450	63,07	0,050064
4,524449	328,445646	63,12	0,049694
4,523383	326,921173	63,17	0,049032
4,522396	326,555525	63,22	0,048874
4,521439	325,457454	63,27	0,048397
4,520385	324,482017	63,32	0,047974
4,519444	322,104740	63,38	0,046942
4,518436	321,433072	63,45	0,046650
4,517407	321,433072	63,50	0,046650
4,516410	319,909724	63,55	0,045989
4,515396	319,116548	63,60	0,045645
4,514371	318,811654	63,65	0,045513
4,513415	317,409814	63,71	0,044904
4,512409	316,495131	63,76	0,044507
4,511457	315,397060	63,81	0,044031
4,510392	312,775643	63,87	0,042893
4,509384	312,349240	63,94	0,042708
4,508378	312,165854	63,99	0,042628
4,507422	310,032717	64,05	0,041703
4,506368	310,093471	64,10	0,041729
4,505483	308,386737	64,15	0,040988
4,504364	307,837702	64,20	0,040750
4,503395	306,313229	64,27	0,040088
4,502415	305,093651	64,33	0,039559
4,501463	304,544616	64,39	0,039321
4,500396	304,300475	64,44	0,039215
4,499380	303,142776	64,49	0,038712
4,498429	300,642866	64,55	0,037627
4,497414	301,069268	64,60	0,037812
4,496380	299,118394	64,67	0,036966
4,495462	298,935007	64,72	0,036886
4,494369	297,167519	64,77	0,036119
4,493418	297,411659	64,82	0,036225
4,492443	295,703800	64,88	0,035484
4,491432	293,813679	64,93	0,034664
4,490497	292,716734	65,00	0,034188
4,489411	291,985437	65,05	0,033870
4,488372	292,411839	65,10	0,034055
4,487439	290,400211	65,17	0,033182
4,486420	289,851175	65,22	0,032944
4,485448	288,875738	65,27	0,032521
4,484454	287,107125	65,32	0,031753
4,483446	286,070934	65,37	0,031303
4,482418	285,095496	65,42	0,030880
4,481408	285,339637	65,48	0,030986
4,480379	283,388762	65,53	0,030139
4,479391	281,803535	65,59	0,029451
4,478422	280,705465	65,64	0,028975
4,477401	280,583957	65,69	0,028922
4,477429	279,303625	65,76	0,028366
4,478413	279,059485	65,80	0,028260
4,479443	279,791907	65,85	0,028578
4,480444	279,851535	65,90	0,028604
4,481397	280,949606	65,95	0,029081
4,482397	282,047676	66,00	0,029557
4,483402	283,936672	66,07	0,030377
4,484440	284,241566	66,12	0,030509
4,485448	285,523023	66,17	0,031065
4,486441	286,985617	66,22	0,031700
4,487493	286,924863	66,27	0,031674
4,488399	287,778793	66,32	0,032044
4,489416	289,911929	66,40	0,032970
4,490399	290,887367	66,45	0,033394
4,491508	291,254140	66,50	0,033553
4,492386	293,082382	66,56	0,034346
4,493405	292,900121	66,61	0,034267
4,494396	294,667609	66,66	0,035034
4,495430	295,094011	66,72	0,035219
4,496477	295,887187	66,77	0,035563
4,497423	297,533167	66,82	0,036278
4,498431	298,447851	66,87	0,036675
4,499407	300,703620	66,93	0,037654
4,500442	300,521358	66,98	0,037575
4,501446	302,044706	67,05	0,038236
4,502465	302,898636	67,10	0,038606
4,503425	303,082022	67,15	0,038686
4,504460	304,423108	67,20	0,039268
4,505361	305,337792	67,25	0,039665
4,506431	307,227913	67,32	0,040485
4,507386	307,959209	67,37	0,040803
4,508387	308,568998	67,43	0,041067
4,509447	310,519873	67,49	0,041914
4,510417	310,337612	67,54	0,041835
4,511463	311,495311	67,59	0,042337
4,512415	313,080537	67,64	0,043025
4,513418	313,446186	67,69	0,043184
4,514406	314,239361	67,75	0,043528
4,515374	315,763834	67,80	0,044190
4,516426	317,409814	67,85	0,044904
4,517454	317,836217	67,90	0,045089
4,518446	319,421443	67,95	0,045777
4,519440	320,031232	68,00	0,046042
4,520398	320,701775	68,06	0,046333
4,521407	321,372318	68,11	0,046624
4,522447	322,470388	68,16	0,047101
4,523418	323,872228	68,21	0,047709
4,524429	325,335947	68,28	0,048344
4,525406	326,250630	68,34	0,048741
4,526499	326,737786	68,39	0,048953
4,527406	327,347575	68,44	0,049217
4,528471	328,872048	68,49	0,049879
4,529466	331,188571	68,55	0,050884
4,530446	331,554219	68,60	0,051043
4,531454	331,920993	68,66	0,051202
4,532445	332,957184	68,71	0,051652
4,533435	334,298270	68,77	0,052234
4,534361	335,091446	68,83	0,052578
4,535405	335,517848	68,88	0,052763
4,536448	336,371778	68,93	0,053134
4,537433	337,834371	68,98	0,053769
4,538403	339,480352	69,04	0,054483
4,539423	340,273528	69,09	0,054827
4,540426	341,553859	69,15	0,055383
4,541404	343,383227	69,20	0,056177
4,542403	343,748875	69,26	0,056335
4,543436	344,663558	69,31	0,056732
4,544396	344,358664	69,36	0,056600
4,545415	346,553679	69,41	0,057553
4,546419	347,345730	69,46	0,057896
4,547409	349,175097	69,52	0,058690
4,548415	350,029027	69,57	0,059061
4,549446	349,479992	69,62	0,058823
4,550416	351,796515	69,67	0,059828
4,551429	353,320988	69,74	0,060490
4,552358	353,504374	69,79	0,060569
4,553446	353,443620	69,85	0,060543
4,554418	355,942405	69,90	0,061627
4,555431	356,247300	69,95	0,061760
4,556432	357,771772	70,00	0,062421
4,557408	359,478507	70,06	0,063162
4,558437	359,174737	70,11	0,063030
4,559427	361,002979	70,16	0,063824
4,560403	362,040296	70,24	0,064274
4,561346	361,430507	70,29	0,064009
4,562430	363,747030	70,34	0,065015
4,563401	363,991170	70,40	0,065121
4,564438	365,209623	70,45	0,065649
4,565417	367,161623	70,51	0,066497
4,566461	367,343885	70,56	0,066576
4,567417	368,075182	70,61	0,066893
4,568408	370,332076	70,67	0,067873
4,569407	371,551654	70,72	0,068402
4,570412	372,404459	70,77	0,068772
4,571422	372,953494	70,83	0,069010
4,572413	373,502529	70,88	0,069249
4,573437	374,904369	70,93	0,069857
4,574381	376,550349	71,00	0,070571
4,575433	376,917123	71,05	0,070730
4,576397	377,952189	71,10	0,071180
4,577412	379,476662	71,16	0,071841
4,578461	379,538540	71,21	0,071868
4,579454	381,184521	71,27	0,072583
4,580412	382,281466	71,33	0,073059
4,581441	383,256903	71,38	0,073482
4,582413	384,537235	71,44	0,074038
4,583417	384,904009	71,50	0,074197
4,584393	385,940200	71,55	0,074646
4,585406	386,245095	71,60	0,074779
4,586421	388,683126	71,66	0,075837
4,587364	389,049899	71,71	0,075996
4,588427	390,573247	71,78	0,076657
4,589440	390,817387	71,83	0,076763
4,590369	392,281106	71,88	0,077398
4,591366	393,561438	71,94	0,077954
4,592400	393,987840	71,99	0,078139
4,593376	394,110473	72,04	0,078192
4,594433	395,694574	72,09	0,078880
4,595396	396,610383	72,14	0,079277
4,596412	397,828836	72,19	0,079806
4,597452	399,475941	72,26	0,080521
4,598415	400,694394	72,31	0,081050
4,599405	401,487570	72,36	0,081394
4,600507	402,645269	72,43	0,081896
4,601413	402,950164	72,48	0,082029
4,602439	405,023672	72,54	0,082929
4,603407	405,511953	72,59	0,083141
4,604409	407,279441	72,65	0,083908
4,605428	407,584335	72,72	0,084040
4,606390	407,767722	72,77	0,084120
4,607410	409,352949	72,82	0,084808
4,608391	410,449894	72,87	0,085284
4,609444	411,974366	72,92	0,085945
4,610386	412,035120	72,97	0,085972
4,611384	413,864487	73,04	0,086766
4,612376	413,925241	73,09	0,086792
4,613434	416,364397	73,14	0,087851
4,614410	415,876116	73,20	0,087639
4,615431	416,608538	73,25	0,087957
4,616412	418,192639	73,30	0,088644
4,617361	419,900499	73,37	0,089385
4,618390	421,364217	73,42	0,090021
4,619386	421,364217	73,48	0,090021
4,620422	422,156268	73,53	0,090364
4,621390	423,131705	73,58	0,090788
4,622393	425,326721	73,64	0,091740
4,623424	424,839565	73,69	0,091529
4,624399	425,936510	73,74	0,092005
4,625444	426,667807	73,80	0,092322
4,626381	429,411857	73,86	0,093513
4,627365	430,326541	73,92	0,093910
4,628430	430,813697	73,97	0,094122
4,629364	431,484240	74,02	0,094413
4,630367	432,277416	74,07	0,094757
4,631422	433,862642	74,13	0,095445
4,632408	435,203728	74,18	0,096027
4,633436	436,239919	74,24	0,096477
4,634427	437,154603	74,29	0,096874
4,635425	437,764392	74,34	0,097138
4,636416	439,349618	74,39	0,097826
4,637396	438,861337	74,45	0,097614
4,638405	439,533005	74,50	0,097906
4,639408	440,508443	74,55	0,098329
4,640432	443,678895	74,62	0,099705
4,641382	444,226806	74,67	0,099943
4,642486	443,983790	74,73	0,099837
4,643404	445,446384	74,78	0,100472
4,644393	446,361067	74,83	0,100869
4,645375	448,007047	74,90	0,101583
4,646362	448,921731	74,95	0,101980
4,647437	448,982485	75,00	0,102007
4,648392	451,726535	75,06	0,103198
4,649423	451,605028	75,11	0,103145
4,650387	453,190254	75,17	0,103833
4,651391	453,434395	75,22	0,103939
4,652351	455,262637	75,27	0,104732
4,653443	455,141129	75,32	0,104680
4,654389	456,847863	75,38	0,105420
4,655429	458,250828	75,43	0,106029
4,656398	458,067441	75,49	0,105950
4,657356	460,383965	75,55	0,106955
4,658411	460,933000	75,60	0,107193
4,659376	462,152578	75,65	0,107723
4,660397	463,188769	75,72	0,108172
4,661374	464,834749	75,77	0,108887
4,662412	464,408347	75,82	0,108702
4,663415	466,054327	75,87	0,109416
4,664432	466,542609	75,92	0,109628
4,665433	466,664117	75,97	0,109681
4,666392	469,286659	76,04	0,110819
4,667364	469,042519	76,09	0,110713
4,668377	470,200218	76,14	0,111215
4,669369	471,175655	76,20	0,111639
4,670328	472,212972	76,25	0,112089
4,671399	474,590249	76,31	0,113121
4,672394	473,736319	76,36	0,112750
4,673407	475,078530	76,42	0,113333
4,674393	477,577315	76,48	0,114417
4,675382	478,004842	76,53	0,114603
4,676350	478,126350	76,58	0,114655
4,677374	479,711577	76,64	0,115343
4,678434	480,077225	76,69	0,115502
4,679454	482,211487	76,75	0,116428
4,680413	482,211487	76,81	0,116428
4,681398	483,370311	76,86	0,116931
4,682408	485,199678	76,91	0,117725
4,683369	486,357377	76,97	0,118228
4,684427	486,357377	77,02	0,118228
4,685408	487,150553	77,09	0,118572
4,686368	488,125990	77,14	0,118995
4,687410	490,260252	77,19	0,119921
4,688392	491,601337	77,26	0,120503
4,689366	491,235689	77,31	0,120345
4,690403	492,820916	77,36	0,121033
4,691412	494,832544	77,42	0,121906
4,692400	494,039369	77,47	0,121562
4,693377	494,771790	77,52	0,121879
4,694393	497,514716	77,58	0,123070
4,695381	497,393208	77,63	0,123017
4,696453	499,344083	77,69	0,123864
4,697403	500,258767	77,75	0,124261
4,698375	500,868556	77,80	0,124525
4,699442	502,209641	77,87	0,125107
4,700450	502,575290	77,92	0,125266
4,701385	503,185079	77,97	0,125531
4,702384	505,806497	78,03	0,126668
4,703405	505,563481	78,08	0,126563
4,704346	506,843813	78,13	0,127119
4,705345	507,148708	78,18	0,127251
4,706367	508,978075	78,26	0,128045
4,707353	510,624055	78,32	0,128759
4,708361	510,501422	78,37	0,128706
4,709344	511,538738	78,42	0,129156
4,710369	512,635684	78,47	0,129632
4,711366	512,635684	78,52	0,129632
4,712397	513,733754	78,57	0,130109
4,713384	515,989523	78,64	0,131088
4,714343	517,147222	78,69	0,131590
4,715421	518,306047	78,74	0,132093
4,716349	518,610941	78,79	0,132226
4,717400	520,378429	78,84	0,132993
4,718385	520,805957	78,91	0,133178
4,719401	520,805957	78,96	0,133178
4,720431	523,243988	79,01	0,134236
4,721421	522,940218	79,06	0,134104
4,722385	524,342058	79,11	0,134713
4,723366	525,988038	79,18	0,135427
4,724394	526,171425	79,23	0,135507
4,725386	528,305687	79,29	0,136433
4,726402	528,609456	79,34	0,136565
4,727360	530,195808	79,39	0,137253
4,728396	529,951667	79,44	0,137147
4,729367	531,963296	79,50	0,138021
4,730364	533,182874	79,56	0,138550
4,731374	533,609276	79,61	0,138735
4,732378	535,499397	79,66	0,139555
4,733354	535,499397	79,71	0,139555
4,734393	537,023870	79,77	0,140217
4,735406	537,694412	79,82	0,140508
4,736354	538,243448	79,88	0,140746
4,737399	539,279639	79,93	0,141196
4,738384	540,864865	79,98	0,141884
4,739372	541,048252	80,03	0,141963
4,740404	542,510846	80,08	0,142598
4,741380	543,608916	80,15	0,143075
4,742404	545,071510	80,21	0,143709
4,743410	544,828494	80,26	0,143604
4,744394	546,107701	80,31	0,144159
4,745360	547,145017	80,36	0,144609
4,746373	549,766435	80,42	0,145747
4,747371	549,887943	80,47	0,145800
4,748370	551,230154	80,53	0,146382
4,749365	551,779189	80,58	0,146621
4,750400	553,546677	80,66	0,147388
4,751351	554,095712	80,71	0,147626
4,752469	555,436798	80,78	0,148208
4,753370	555,925079	80,84	0,148420
4,754369	556,046587	80,89	0,148473
4,755365	557,692567	80,94	0,149187
4,756376	559,156286	80,99	0,149822
4,757347	560,436618	81,06	0,150378
4,758393	561,107161	81,12	0,150669
4,759352	561,290548	81,17	0,150749
4,760338	562,813895	81,22	0,151410
4,761390	563,423684	81,27	0,151674
4,762351	564,643262	81,32	0,152204
4,763367	566,472629	81,39	0,152998
4,764340	567,569574	81,46	0,153474
4,765344	567,997102	81,51	0,153659
4,766323	567,752961	81,56	0,153553
4,767369	569,398942	81,61	0,154268
4,768346	571,471324	81,66	0,155167
4,769449	572,142992	81,73	0,155458
4,769351	572,446762	81,79	0,155590
4,769380	572,630148	81,84	0,155670
4,769370	573,361445	81,89	0,155987
4,769378	572,325254	81,94	0,155538
4,769379	573,300691	81,99	0,155961
4,769389	573,179183	82,04	0,155908
4,769394	573,605586	82,11	0,156093
4,769337	572,264500	82,16	0,155511
4,769391	573,118430	82,21	0,155882
4,769386	572,569394	82,26	0,155644
4,769376	573,728219	82,31	0,156146
4,769356	573,788972	82,36	0,156173
4,769377	572,752781	82,41	0,155723
4,769404	573,484078	82,47	0,156041
4,769316	573,300691	82,52	0,155961
4,769352	572,690902	82,57	0,155696
4,769352	572,203746	82,62	0,155485
4,769385	573,118430	82,68	0,155882
4,769394	573,361445	82,73	0,155987
4,769367	572,690902	82,80	0,155696
4,769302	572,935043	82,85	0,155802
4,769370	572,874289	82,90	0,155776
4,769323	573,423324	82,95	0,156014
4,769358	573,056551	83,00	0,155855
4,769425	572,813535	83,05	0,155750
4,769363	572,569394	83,10	0,155644
4,769365	572,264500	83,15	0,155511
4,769324	572,387133	83,20	0,155564
4,769377	572,752781	83,26	0,155723
4,769389	573,056551	83,32	0,155855
4,769387	573,179183	83,37	0,155908
4,769341	572,690902	83,42	0,155696
4,769358	572,690902	83,47	0,155696
4,769316	572,508641	83,53	0,155617
4,769366	572,325254	83,58	0,155538
4,769410	572,446762	83,63	0,155590
4,769382	572,813535	83,68	0,155750
4,769361	572,690902	83,74	0,155696
4,769327	572,569394	83,79	0,155644
4,769377	573,300691	83,84	0,155961
4,769354	572,508641	83,89	0,155617
4,769336	572,752781	83,94	0,155723
4,769319	572,874289	84,00	0,155776
4,769379	572,020359	84,05	0,155405
4,769372	572,630148	84,10	0,155670
4,769370	572,446762	84,15	0,155590
4,769388	572,325254	84,20	0,155538
4,769341	572,325254	84,28	0,155538
4,769339	573,118430	84,33	0,155882
4,769377	572,020359	84,39	0,155405
4,769320	572,813535	84,44	0,155750
4,769362	572,446762	84,50	0,155590
4,769353	572,325254	84,55	0,155538
4,769346	572,508641	84,62	0,155617
4,769347	572,446762	84,67	0,155590
4,769387	572,387133	84,73	0,155564
4,769321	572,569394	84,78	0,155644
4,769366	572,020359	84,84	0,155405
4,769335	572,387133	84,89	0,155564
4,769350	573,300691	84,94	0,155961
4,769370	572,630148	85,00	0,155670
4,769331	572,508641	85,06	0,155617
4,769396	572,690902	85,12	0,155696
4,769395	572,142992	85,19	0,155458
4,769368	572,752781	85,25	0,155723
4,769411	572,264500	85,30	0,155511
4,769353	571,898852	85,36	0,155353
4,769362	572,325254	85,43	0,155538
4,769393	572,630148	85,49	0,155670
4,769288	572,508641	85,56	0,155617
4,769379	572,630148	85,64	0,155670
4,769328	572,387133	85,71	0,155564
4,769309	572,446762	85,77	0,155590
4,769373	572,630148	85,84	0,155670
4,769369	572,752781	85,91	0,155723
4,769371	572,264500	85,98	0,155511
4,769370	572,142992	86,06	0,155458
4,769345	572,264500	86,11	0,155511
4,769352	572,569394	86,16	0,155644
4,769310	572,081113	86,21	0,155432
4,769387	572,752781	86,27	0,155723
4,769398	572,203746	86,32	0,155485
4,769319	572,446762	86,37	0,155590
4,769379	572,569394	86,43	0,155644
4,769326	572,446762	86,48	0,155590
4,769294	572,508641	86,53	0,155617
4,769439	572,690902	86,58	0,155696
4,769334	572,325254	86,64	0,155538
4,769363	572,446762	86,69	0,155590
4,769379	572,387133	86,75	0,155564
4,769333	572,690902	86,80	0,155696
4,769343	572,569394	86,85	0,155644
4,769341	573,056551	86,90	0,155855
4,769314	572,203746	86,96	0,155485
4,769345	572,569394	87,02	0,155644
4,769287	572,690902	87,07	0,155696
4,769359	572,508641	87,12	0,155617
4,769343	572,874289	87,17	0,155776
4,769356	572,446762	87,23	0,155590
4,769371	572,387133	87,28	0,155564
4,768369	572,387133	87,33	0,155564
4,767356	572,081113	87,38	0,155432
4,766398	571,593957	87,43	0,155220
4,765370	569,338188	87,49	0,154241
4,764326	568,545012	87,56	0,153897
4,763339	568,545012	87,61	0,153897
4,762437	566,411875	87,67	0,152971
4,761311	565,923594	87,73	0,152759
4,760374	563,789333	87,80	0,151833
4,759322	563,423684	87,88	0,151674
4,758330	561,838458	87,94	0,150986
4,757368	561,107161	88,00	0,150669
4,756343	560,436618	88,05	0,150378
4,755353	559,338548	88,11	0,149901
4,754392	557,997462	88,17	0,149319
4,753319	558,423864	88,22	0,149504
4,752376	557,204286	88,28	0,148975
4,751371	555,315290	88,34	0,148155
4,750382	554,034958	88,41	0,147600
4,749312	553,241782	88,47	0,147255
4,748348	551,717310	88,52	0,146594
4,747323	552,266345	88,57	0,146832
4,746450	551,290908	88,62	0,146409
4,745333	549,887943	88,68	0,145800
4,744379	548,241962	88,73	0,145085
4,743389	547,449912	88,78	0,144742
4,742349	546,474474	88,83	0,144318
4,741365	545,620545	88,88	0,143948
4,740408	543,791178	88,95	0,143154
4,739368	543,242142	89,00	0,142916
4,738298	542,145197	89,06	0,142439
4,737374	541,535408	89,11	0,142175
4,736356	539,463026	89,19	0,141275
4,735366	539,463026	89,24	0,141275
4,734360	538,364955	89,29	0,140799
4,733378	536,109186	89,36	0,139820
4,732368	535,560151	89,41	0,139582
4,731355	535,438643	89,46	0,139529
4,730400	533,427014	89,51	0,138656
4,729354	533,427014	89,56	0,138656
4,728397	532,877979	89,61	0,138417
4,727336	530,255436	89,68	0,137279
4,726398	528,976229	89,73	0,136724
4,725405	528,976229	89,78	0,136724
4,724365	527,817405	89,83	0,136221
4,723384	526,781214	89,90	0,135771
4,722345	526,720460	89,95	0,135745
4,721413	525,256741	90,00	0,135110
4,720366	523,671515	90,05	0,134422
4,719359	522,268550	90,10	0,133813
4,718360	520,561816	90,17	0,133072
4,717381	519,891273	90,22	0,132781
4,716341	519,586379	90,27	0,132649
4,715285	518,001152	90,32	0,131961
4,714393	518,122660	90,38	0,132014
4,713371	517,696258	90,43	0,131829
4,712400	515,318980	90,48	0,130797
4,711350	514,281664	90,53	0,130347
4,710358	514,220910	90,58	0,130320
4,709406	511,843633	90,65	0,129289
4,708350	511,111211	90,70	0,128971
4,707377	510,196528	90,75	0,128574
4,706312	510,379914	90,80	0,128653
4,705345	509,160336	90,86	0,128124
4,704402	506,660426	90,92	0,127039
4,703376	506,478165	90,97	0,126960
4,702407	505,197833	91,02	0,126404
4,701406	504,099762	91,08	0,125928
4,700380	503,550727	91,13	0,125689
4,699364	501,722485	91,18	0,124896
4,698359	501,417591	91,23	0,124764
4,697398	500,137259	91,28	0,124208
4,696402	499,039189	91,34	0,123731
4,695365	498,063751	91,39	0,123308
4,694383	498,491278	91,44	0,123494
4,693347	496,966806	91,49	0,122832
4,692388	494,711037	91,55	0,121853
4,691351	493,857107	91,60	0,121482
4,690355	493,063931	91,69	0,121138
4,689386	492,027740	91,77	0,120688
4,688390	491,296443	91,82	0,120371
4,687363	491,173810	91,87	0,120318
4,686381	488,735779	91,93	0,119260
4,685370	488,065236	91,99	0,118969
4,684395	486,540764	92,05	0,118307
4,683389	486,601517	92,10	0,118333
4,682354	485,260432	92,15	0,117751
4,681376	484,832904	92,20	0,117566
4,680344	482,394873	92,27	0,116508
4,679377	481,662451	92,32	0,116190
4,678400	481,114541	92,37	0,115952
4,677439	480,077225	92,44	0,115502
4,676418	478,187104	92,49	0,114682
4,675433	477,517686	92,55	0,114391
4,674335	476,358862	92,60	0,113888
4,673337	476,236229	92,65	0,113835
4,672447	474,103093	92,72	0,112909
4,671351	473,370671	92,77	0,112591
4,670386	473,249163	92,82	0,112539
4,669335	470,810007	92,88	0,111480
4,668385	470,870761	92,93	0,111506
4,667411	468,980640	92,99	0,110686
4,666383	468,005202	93,05	0,110263
4,665422	467,518046	93,10	0,110051
4,664398	466,421101	93,16	0,109575
4,663352	465,018136	93,21	0,108966
4,662381	464,530980	93,28	0,108755
4,661422	464,286839	93,33	0,108649
4,660394	462,518226	93,38	0,107881
4,659416	461,298648	93,43	0,107352
4,658377	460,567351	93,50	0,107035
4,657380	460,018316	93,55	0,106796
4,656455	458,067441	93,61	0,105950
4,655411	457,092004	93,66	0,105526
4,654385	456,787109	93,71	0,105394
4,653387	455,750918	93,76	0,104944
4,652418	453,800043	93,83	0,104098
4,651380	452,275571	93,90	0,103436
4,650462	451,909922	93,95	0,103277
4,649383	450,629590	94,00	0,102722
4,648378	451,055993	94,05	0,102907
4,647387	449,044364	94,11	0,102034
4,646334	447,703278	94,16	0,101452
4,645383	447,459137	94,22	0,101346
4,644414	445,629770	94,28	0,100552
4,643376	444,226806	94,33	0,099943
4,642359	443,678895	94,40	0,099705
4,641449	443,069106	94,45	0,099440
4,640374	442,337810	94,50	0,099123
4,639407	440,569196	94,56	0,098355
4,638381	439,167357	94,61	0,097747
4,637385	439,533005	94,67	0,097906
4,636434	437,703638	94,73	0,097112
4,635393	436,910462	94,78	0,096768
4,634400	435,995779	94,84	0,096371
4,633403	435,203728	94,89	0,096027
4,632387	433,862642	94,94	0,095445
4,631431	433,192099	95,00	0,095154
4,630385	431,911767	95,06	0,094598
4,629397	430,752943	95,13	0,094095
4,628408	431,057838	95,18	0,094228
4,627361	429,228471	95,23	0,093434
4,626372	428,131525	95,28	0,092958
4,625419	427,764752	95,33	0,092798
4,624376	425,143334	95,41	0,091661
4,623354	424,777686	95,47	0,091502
4,622454	424,899194	95,53	0,091555
4,621439	423,680741	95,58	0,091026
4,620442	421,302338	95,62	0,089994
4,619370	420,936690	95,68	0,089835
4,618400	419,412217	95,74	0,089173
4,617377	419,412217	95,79	0,089173
4,616409	417,277956	95,85	0,088247
4,615420	415,998749	95,90	0,087692
4,614361	416,059503	95,95	0,087718
4,613390	413,925241	96,02	0,086792
4,612382	413,985995	96,08	0,086818
4,611390	412,279261	96,13	0,086078
4,610410	411,974366	96,18	0,085945
4,609404	411,425331	96,23	0,085707
4,608412	409,169562	96,30	0,084728
4,607324	408,925421	96,35	0,084622
4,606404	406,791160	96,41	0,083696
4,605341	405,938355	96,47	0,083326
4,604401	405,023672	96,52	0,082929
4,603412	405,084425	96,57	0,082955
4,602375	404,353129	96,62	0,082638
4,602418	401,974726	96,69	0,081605
4,603378	401,548324	96,75	0,081420
4,604460	401,913972	96,80	0,081579
4,605415	403,316937	96,85	0,082188
4,606463	404,291250	96,90	0,082611
4,607420	404,413882	96,95	0,082664
4,608398	406,548144	97,01	0,083590
4,609412	408,315632	97,07	0,084357
4,610394	408,072617	97,12	0,084252
4,611419	409,352949	97,17	0,084808
4,612400	410,328386	97,22	0,085231
4,613394	412,279261	97,29	0,086078
4,614419	413,010558	97,34	0,086395
4,615445	413,193944	97,40	0,086475
4,616433	414,656538	97,45	0,087109
4,617459	415,327081	97,50	0,087400
4,618417	417,339835	97,56	0,088274
4,619363	416,974186	97,61	0,088115
4,620398	418,315272	97,67	0,088697
4,621358	419,412217	97,72	0,089173
4,622349	420,143514	97,77	0,089491
4,623389	423,131705	97,83	0,090788
4,624386	422,400409	97,89	0,090470
4,625381	424,412037	97,94	0,091343
4,626451	425,508983	97,99	0,091819
4,627378	425,997264	98,05	0,092031
4,628381	427,582490	98,10	0,092719
4,629380	427,582490	98,15	0,092719
4,630369	428,374541	98,20	0,093063
4,631381	430,630310	98,25	0,094042
4,632352	431,667627	98,32	0,094492
4,633314	432,398924	98,37	0,094810
4,634385	433,436240	98,42	0,095260
4,635397	433,801888	98,47	0,095418
4,636376	435,692009	98,53	0,096239
4,637397	436,728201	98,59	0,096688
4,638428	436,910462	98,64	0,096768
4,639451	437,520251	98,69	0,097032
4,640341	438,983970	98,74	0,097667
4,641438	439,349618	98,79	0,097826
4,642355	440,813337	98,84	0,098461
4,643365	441,178985	98,89	0,098620
4,644365	443,861157	98,94	0,099784
4,645400	444,166052	99,00	0,099917
4,646410	445,446384	99,07	0,100472
4,647413	445,385630	99,12	0,100446
4,648406	447,214997	99,17	0,101240
4,649410	448,251188	99,22	0,101689
4,650321	449,531520	99,29	0,102245
4,651374	449,654153	99,34	0,102298
4,652407	451,421641	99,39	0,103065
4,653443	452,580465	99,44	0,103568
4,654398	454,226445	99,51	0,104283
4,655373	453,434395	99,56	0,103939
4,656460	454,896988	99,61	0,104574
4,657324	455,446024	99,66	0,104812
4,658422	457,641039	99,71	0,105765
4,659384	457,701793	99,77	0,105791
4,660335	459,836055	99,84	0,106717
4,661382	460,688859	99,89	0,107087
4,662393	461,359402	99,94	0,107378
4,663412	462,152578	100,00	0,107723
4,664380	464,408347	100,06	0,108702
4,665395	464,347593	100,11	0,108675
4,666396	464,347593	100,16	0,108675
4,667360	465,749433	100,21	0,109284
4,668401	465,811312	100,26	0,109311
4,669360	468,980640	100,32	0,110686
4,670354	468,798378	100,37	0,110607
4,671392	470,505112	100,43	0,111348
4,672387	471,542429	100,48	0,111798
4,673381	472,821636	100,54	0,112353
4,674391	472,700128	100,59	0,112300
4,675355	475,444178	100,64	0,113491
4,676378	475,809827	100,70	0,113650
4,677434	476,907897	100,75	0,114126
4,678351	477,944088	100,81	0,114576
4,679389	478,796893	100,86	0,114946
4,680392	480,260612	100,92	0,115582
4,681410	480,199858	100,97	0,115555
4,682348	480,809647	101,03	0,115820
4,683432	482,882029	101,08	0,116719
4,684408	483,796713	101,13	0,117116
4,685323	485,747588	101,19	0,117963
4,686387	485,321186	101,24	0,117778
4,687346	486,418131	101,29	0,118254
4,688384	487,637709	101,34	0,118783
4,689335	488,979920	101,40	0,119366
4,690406	488,918041	101,45	0,119339
4,691366	490,625900	101,50	0,120080
4,692382	492,211127	101,56	0,120768
4,693384	493,063931	101,61	0,121138
4,694388	493,857107	101,67	0,121482
4,695331	494,466896	101,72	0,121747
4,696385	496,295138	101,78	0,122541
4,697372	496,722665	101,83	0,122726
4,698430	497,393208	101,88	0,123017
4,699370	499,222575	101,93	0,123811
4,700398	500,014626	102,00	0,124155
4,701413	501,417591	102,05	0,124764
4,702368	502,819430	102,10	0,125372
4,703384	504,465411	102,17	0,126086
4,704298	504,770305	102,22	0,126219
4,705400	505,929129	102,28	0,126722
4,706363	506,173270	102,33	0,126828
4,707430	507,330969	102,39	0,127330
4,708392	507,697743	102,44	0,127489
4,709403	509,038828	102,50	0,128071
4,710369	510,563301	102,55	0,128733
4,711358	511,965141	102,61	0,129341
4,712335	511,904387	102,66	0,129315
4,713390	512,147402	102,71	0,129420
4,714372	513,366980	102,76	0,129950
4,715338	514,891453	102,81	0,130611
4,716398	515,379734	102,86	0,130823
4,717326	517,757011	102,93	0,131855
4,718397	518,610941	102,98	0,132226
4,719351	519,647132	103,03	0,132675
4,720400	520,561816	103,10	0,133072
4,721361	521,171605	103,15	0,133337
4,722340	522,878339	103,20	0,134078
4,723373	522,878339	103,26	0,134078
4,724357	524,342058	103,31	0,134713
4,725396	526,353687	103,38	0,135586
4,726286	526,658581	103,43	0,135718
4,727436	527,207616	103,49	0,135957
4,728385	528,732089	103,55	0,136618
4,729409	530,255436	103,60	0,137279
4,730374	529,951667	103,65	0,137147
4,731426	532,207436	103,71	0,138126
4,732346	533,120995	103,76	0,138523
4,733348	533,487768	103,81	0,138682
4,734457	534,889608	103,88	0,139291
4,735426	535,133749	103,93	0,139396
4,736402	536,658221	103,98	0,140058
4,737390	537,999307	104,04	0,140640
4,738378	539,096252	104,09	0,141116
4,739388	540,438463	104,14	0,141699
4,740365	540,376584	104,20	0,141672
4,741356	542,145197	104,26	0,142439
4,742347	542,450092	104,31	0,142572
4,743387	543,730424	104,36	0,143127
4,744346	545,376404	104,41	0,143842
4,745397	546,656736	104,46	0,144397
4,746355	547,084263	104,53	0,144583
4,747380	547,997822	104,58	0,144979
4,748385	549,644927	104,64	0,145694
4,749366	550,010576	104,70	0,145853
4,750370	550,315470	104,75	0,145985
4,751389	551,412415	104,80	0,146461
4,752301	552,571240	104,87	0,146964
4,753399	553,302536	104,92	0,147282
4,754359	554,887763	104,98	0,147970
4,755356	555,863200	105,03	0,148393
4,756350	557,753321	105,09	0,149213
4,757321	557,387673	105,15	0,149055
4,758366	558,241602	105,20	0,149425
4,759379	560,618880	105,25	0,150457
4,760329	560,375864	105,30	0,150352
4,761317	561,228669	105,36	0,150722
4,762336	563,118790	105,42	0,151542
4,763335	563,607071	105,47	0,151754
4,764380	565,069664	105,52	0,152389
4,765309	566,715645	105,58	0,153103
4,766398	566,349996	105,64	0,152944
4,767346	568,240117	105,69	0,153765
4,768389	569,703836	105,75	0,154400
4,769391	570,618520	105,80	0,154797
4,770345	571,715465	105,85	0,155273
4,771318	571,410570	105,91	0,155141
4,772328	574,459515	105,96	0,156464
4,773381	574,581023	106,01	0,156517
4,774364	575,374199	106,06	0,156861
4,775422	576,959425	106,11	0,157549
4,776334	576,959425	106,18	0,157549
4,777342	578,239757	106,23	0,158104
4,778410	579,946492	106,29	0,158845
4,779374	579,702351	106,35	0,158739
4,780340	580,677788	106,40	0,159163
4,781343	581,654351	106,45	0,159586
4,782326	583,665980	106,51	0,160459
4,783368	583,910120	106,56	0,160565
4,784390	585,860995	106,61	0,161412
4,785356	586,775679	106,67	0,161809
4,786325	586,775679	106,72	0,161809
4,787318	588,970694	106,79	0,162762
4,788350	589,518604	106,84	0,163000
4,789356	590,251026	106,89	0,163317
4,790318	591,470604	106,94	0,163847
4,791297	593,116584	107,01	0,164561
4,792364	593,847881	107,06	0,164878
4,793353	593,787127	107,11	0,164852
4,794287	596,226283	107,18	0,165911
4,795326	597,079088	107,23	0,166281
4,796337	597,993772	107,29	0,166678
4,797388	597,810385	107,34	0,166598
4,798334	598,785822	107,39	0,167021
4,799324	600,920084	107,46	0,167948
4,800341	600,920084	107,51	0,167948
4,801354	602,078908	107,56	0,168451
4,802337	602,932838	107,61	0,168821
4,803332	603,785642	107,66	0,169191
4,804332	605,370869	107,71	0,169879
4,805358	607,870779	107,78	0,170964
4,806321	607,993412	107,83	0,171018
4,807361	609,334497	107,90	0,171600
4,808353	609,821654	107,95	0,171811
4,809321	609,700146	108,00	0,171758
4,810396	612,078548	108,05	0,172791
4,811360	612,321564	108,10	0,172896
4,812347	613,357755	108,15	0,173346
4,813314	614,882227	108,22	0,174007
4,814329	615,980298	108,28	0,174484
4,815322	616,467454	108,33	0,174695
4,816355	617,077243	108,38	0,174960
4,817349	617,442891	108,43	0,175119
4,818314	619,211505	108,48	0,175886
4,819320	620,918239	108,55	0,176627
4,820305	621,893676	108,60	0,177050
4,821335	623,357395	108,65	0,177686
4,822383	623,845676	108,72	0,177897
4,823308	624,516219	108,77	0,178188
4,824301	625,247516	108,82	0,178506
4,825393	627,015004	108,89	0,179273
4,826367	627,990441	108,94	0,179696
4,827342	628,234582	108,99	0,179802
4,828329	629,942441	109,06	0,180543
4,829311	630,308090	109,11	0,180702
4,830331	632,319718	109,18	0,181575
4,831363	633,539297	109,23	0,182104
4,832319	632,746121	109,28	0,181760
4,833313	634,027578	109,33	0,182316
4,834315	635,917699	109,38	0,183137
4,835322	637,014644	109,43	0,183613
4,836349	636,709749	109,49	0,183480
4,837346	638,294976	109,54	0,184168
4,838295	638,904765	109,59	0,184433
4,839343	640,855640	109,66	0,185280
4,840319	640,916394	109,71	0,185306
4,841313	643,294796	109,78	0,186338
4,842327	643,294796	109,83	0,186338
4,843343	645,184917	109,88	0,187159
4,844319	645,184917	109,93	0,187159
4,845354	647,562194	109,99	0,188190
4,846328	647,257299	110,04	0,188058
4,847362	649,452315	110,11	0,189011
4,848328	649,513069	110,16	0,189037
4,849335	649,940596	110,21	0,189223
4,850331	651,220928	110,26	0,189778
4,851342	652,562014	110,33	0,190360
4,852310	654,086487	110,38	0,191022
4,853350	653,842346	110,43	0,190916
4,854288	655,366818	110,48	0,191578
4,855305	656,768658	110,53	0,192186
4,856330	657,439201	110,58	0,192477
4,857329	658,658779	110,64	0,193006
4,858341	660,548900	110,70	0,193827
4,859286	660,793041	110,75	0,193933
4,860350	662,256759	110,81	0,194568
4,861330	661,707724	110,86	0,194330
4,862353	663,902740	110,92	0,195282
4,863310	664,207634	110,97	0,195415
4,864329	665,914369	111,03	0,196155
4,865386	667,133947	111,08	0,196685
4,866327	666,829052	111,13	0,196552
4,867311	668,170138	111,18	0,197134
4,868297	669,573103	111,25	0,197743
4,869330	670,425907	111,30	0,198113
4,870315	671,768118	111,36	0,198696
4,871357	672,865063	111,41	0,199172
4,872297	674,084641	111,47	0,199701
4,873342	674,206149	111,52	0,199754
4,874315	675,609114	111,58	0,200363
4,875331	676,279657	111,63	0,200654
4,876400	677,255094	111,68	0,201077
4,877340	678,961829	111,73	0,201818
4,878358	680,242160	111,78	0,202374
4,879303	680,668563	111,83	0,202559
4,880354	681,583246	111,89	0,202956
4,881306	682,802824	111,95	0,203485
4,882300	683,474492	112,00	0,203776
4,883314	684,997840	112,05	0,204437
4,884296	684,937086	112,10	0,204411
4,885345	685,973277	112,15	0,204861
4,886324	687,802644	112,22	0,205655
4,887325	689,022222	112,28	0,206184
4,888352	689,266363	112,33	0,206290
4,889355	689,692765	112,38	0,206475
4,890300	690,728957	112,44	0,206925
4,891294	692,558324	112,50	0,207719
4,892333	693,228867	112,56	0,208010
4,893277	694,569952	112,62	0,208592
4,894294	695,484636	112,68	0,208989
4,895361	696,643460	112,73	0,209492
4,896298	696,887601	112,78	0,209598
4,897262	699,082616	112,84	0,210550
4,898353	699,753159	112,91	0,210841
4,899250	700,667843	112,96	0,211238
4,900315	701,825542	113,01	0,211741
4,901342	703,045120	113,08	0,212270
4,902329	703,533401	113,13	0,212482
4,903326	704,874487	113,19	0,213064
4,904285	705,179381	113,25	0,213196
4,905272	707,435151	113,30	0,214175
4,906380	707,374397	113,35	0,214149
4,907297	708,959623	113,40	0,214837
4,908366	709,935061	113,46	0,215260
4,909291	710,605604	113,52	0,215551
4,910358	711,520287	113,57	0,215948
4,911350	712,251584	113,62	0,216266
4,912311	713,044760	113,68	0,216610
4,913331	714,569232	113,73	0,217271
4,914314	715,787685	113,80	0,217800
4,915306	716,336721	113,86	0,218039
4,916316	717,251404	113,92	0,218436
4,917356	718,410228	113,97	0,218938
4,918302	719,872822	114,02	0,219573
4,919333	719,812068	114,07	0,219547
4,920283	720,909013	114,12	0,220023
4,921336	722,190470	114,17	0,220579
4,922289	723,165908	114,22	0,221002
4,923352	724,872642	114,28	0,221743
4,924277	724,872642	114,33	0,221743
4,925324	726,397114	114,38	0,222405
4,926366	727,372552	114,45	0,222828
4,927350	729,018532	114,51	0,223542
4,928339	729,262673	114,56	0,223648
4,929287	730,543005	114,61	0,224204
4,930294	731,335055	114,67	0,224548
4,931285	731,884091	114,72	0,224786
4,932281	733,408563	114,78	0,225448
4,933291	734,251242	114,83	0,225813
4,934258	734,993790	114,88	0,226136
4,935299	735,542825	114,93	0,226374
4,936289	736,212243	114,98	0,226665
4,936263	738,285750	115,03	0,227564
4,936278	739,383821	115,10	0,228041
4,936321	739,321942	115,15	0,228014
4,936339	738,102364	115,20	0,227485
4,936344	738,469137	115,26	0,227644
4,936320	739,078926	115,31	0,227909
4,936330	738,651399	115,36	0,227723
4,936322	739,261188	115,43	0,227988
4,936299	738,224996	115,49	0,227538
4,936324	738,042735	115,54	0,227459
4,936399	738,285750	115,59	0,227564
4,936318	738,408383	115,64	0,227618
4,936260	738,590645	115,69	0,227697
4,936288	738,469137	115,75	0,227644
4,936281	739,078926	115,80	0,227909
4,936299	737,920102	115,85	0,227406
4,936288	738,408383	115,91	0,227618
4,936323	738,469137	115,96	0,227644
4,936306	738,408383	116,01	0,227618
4,936297	738,285750	116,06	0,227564
4,936334	738,956293	116,11	0,227855
4,936280	738,590645	116,16	0,227697
4,936281	739,200434	116,23	0,227961
4,936293	738,529891	116,29	0,227670
4,936277	739,078926	116,34	0,227909
4,936274	738,224996	116,39	0,227538
4,936313	738,285750	116,44	0,227564
4,936359	738,590645	116,50	0,227697
4,936326	738,651399	116,55	0,227723
4,936326	738,346504	116,60	0,227591
4,936251	738,224996	116,67	0,227538
4,936306	738,285750	116,72	0,227564
4,936337	738,042735	116,77	0,227459
4,936258	738,408383	116,82	0,227618
4,936295	738,042735	116,87	0,227459
4,936362	738,164243	116,93	0,227512
4,936277	738,346504	116,98	0,227591
4,936339	738,651399	117,05	0,227723
4,936334	738,285750	117,10	0,227564
4,936293	738,224996	117,15	0,227538
4,936302	738,712153	117,20	0,227750
4,936293	738,346504	117,25	0,227591
4,936343	738,224996	117,31	0,227538
4,936362	738,712153	117,36	0,227750
4,936398	738,346504	117,41	0,227591
4,936298	738,285750	117,47	0,227564
4,936304	738,285750	117,53	0,227564
4,936307	738,224996	117,58	0,227538
4,936354	738,408383	117,64	0,227618
4,936281	738,408383	117,69	0,227618
4,936323	738,042735	117,75	0,227459
4,936301	739,505328	117,80	0,228094
4,936328	738,346504	117,87	0,227591
4,936377	738,285750	117,92	0,227564
4,936299	738,224996	117,97	0,227538
4,936281	738,712153	118,04	0,227750
4,936346	738,164243	118,09	0,227512
4,936308	738,346504	118,15	0,227591
4,936334	738,651399	118,20	0,227723
4,936319	738,469137	118,25	0,227644
4,936357	738,164243	118,31	0,227512
4,936256	738,346504	118,36	0,227591
4,936322	738,408383	118,44	0,227618
4,936298	738,102364	118,50	0,227485
4,936331	738,164243	118,56	0,227512
4,936272	738,224996	118,62	0,227538
4,936350	738,956293	118,68	0,227855
4,936324	738,469137	118,73	0,227644
4,936300	738,408383	118,78	0,227618
4,936386	738,346504	118,84	0,227591
4,936241	737,920102	118,91	0,227406
4,936322	738,224996	118,99	0,227538
4,936326	738,164243	119,08	0,227512
4,936356	737,371067	119,14	0,227167
4,936315	738,042735	119,19	0,227459
4,936298	738,285750	119,25	0,227564
4,936263	737,371067	119,31	0,227167
4,936283	738,346504	119,36	0,227591
4,936396	738,042735	119,41	0,227459
4,936277	737,736715	119,47	0,227326
4,936267	738,042735	119,52	0,227459
4,936329	738,102364	119,57	0,227485
4,936344	737,736715	119,62	0,227326
4,936338	738,042735	119,67	0,227459
4,936315	738,590645	119,72	0,227697
4,936321	738,224996	119,77	0,227538
4,936308	738,469137	119,82	0,227644
4,936357	738,285750	119,88	0,227564
4,936352	738,590645	119,93	0,227697
4,936349	737,798594	119,98	0,227353
4,936346	738,102364	120,03	0,227485
4,936341	738,285750	120,08	0,227564
4,936292	738,042735	120,13	0,227459
4,936285	739,018172	120,18	0,227882
4,936379	738,469137	120,23	0,227644
4,936332	738,529891	120,29	0,227670
4,936329	737,980856	120,34	0,227432
4,936330	737,920102	120,39	0,227406
4,936348	738,102364	120,44	0,227485
4,936371	738,346504	120,49	0,227591
4,935347	738,895539	120,54	0,227829
4,934320	738,529891	120,59	0,227670
4,933344	737,126926	120,64	0,227062
4,932315	734,749649	120,71	0,226030
4,931358	734,323247	120,78	0,225845
4,930322	734,688895	120,83	0,226003
4,929330	733,287055	120,91	0,225395
4,928319	731,274302	120,98	0,224521
4,927353	731,518442	121,04	0,224627
4,926254	728,774392	121,12	0,223437
4,925353	728,713638	121,18	0,223410
4,924294	727,555939	121,23	0,222908
4,923356	725,603939	121,30	0,222061
4,922323	724,872642	121,35	0,221743
4,921385	724,933396	121,41	0,221770
4,920347	724,141345	121,46	0,221426
4,919351	722,251224	121,55	0,220605
4,918288	721,153154	121,60	0,220129
4,917348	720,056209	121,67	0,219653
4,916349	719,933576	121,72	0,219600
4,915357	717,982701	121,78	0,218753
4,914330	717,677806	121,83	0,218621
4,913333	715,482791	121,89	0,217668
4,912350	715,787685	121,94	0,217800
4,911348	713,959443	121,99	0,217007
4,910324	713,166268	122,05	0,216663
4,909306	712,922127	122,13	0,216557
4,908370	710,787865	122,22	0,215630
4,907314	709,569412	122,30	0,215102
4,906321	708,776237	122,37	0,214757
4,905385	709,203764	122,42	0,214943
4,904381	708,289081	122,47	0,214546
4,903309	705,179381	122,54	0,213196
4,902314	704,874487	122,59	0,213064
4,901336	703,594155	122,65	0,212508
4,900355	702,618718	122,71	0,212085
4,899324	702,130436	122,77	0,211873
4,898290	700,667843	122,82	0,211238
4,897351	700,423702	122,87	0,211132
4,896315	700,118808	122,92	0,211000
4,895326	697,558144	122,97	0,209889
4,894325	697,446762	123,03	0,209840
4,893321	696,826847	123,08	0,209571
4,892379	695,241620	123,13	0,208883
4,891340	694,082796	123,18	0,208380
4,890320	692,071168	123,24	0,207507
4,889334	692,497570	123,30	0,207692
4,888333	691,095730	123,35	0,207084
4,887308	689,997660	123,40	0,206607
4,886317	689,022222	123,45	0,206184
4,885317	687,986031	123,51	0,205734
4,884324	686,522312	123,56	0,205099
4,883333	686,522312	123,61	0,205099
4,882279	684,692945	123,66	0,204305
4,881325	683,046965	123,73	0,203591
4,880286	682,071528	123,78	0,203167
4,879394	682,071528	123,83	0,203167
4,878363	681,278352	123,89	0,202823
4,877371	679,632371	123,94	0,202109
4,876321	677,803004	124,00	0,201315
4,875320	676,950200	124,05	0,200945
4,874301	676,340411	124,10	0,200680
4,873360	676,584551	124,15	0,200786
4,872272	674,571798	124,22	0,199913
4,871306	672,986571	124,27	0,199225
4,870339	673,047325	124,32	0,199251
4,869327	672,316028	124,37	0,198934
4,868288	671,340591	124,42	0,198510
4,867362	669,024068	124,49	0,197505
4,866424	668,292771	124,54	0,197188
4,865378	668,109384	124,59	0,197108
4,864379	666,340771	124,64	0,196340
4,863354	665,304579	124,70	0,195891
4,862392	664,512529	124,75	0,195547
4,861337	663,840861	124,81	0,195255
4,860326	661,950740	124,87	0,194435
4,859362	662,012619	124,92	0,194462
4,858327	660,244006	124,97	0,193694
4,857368	659,025553	125,03	0,193166
4,856348	658,902920	125,08	0,193112
4,855335	657,073553	125,15	0,192318
4,854322	655,366818	125,20	0,191578
4,853339	656,098115	125,25	0,191895
4,852335	654,391381	125,30	0,191154
4,851336	652,440506	125,36	0,190308
4,850366	653,111049	125,41	0,190599
4,849327	650,855280	125,47	0,189620
4,848353	650,427752	125,53	0,189434
4,847291	649,452315	125,58	0,189011
4,846288	647,440686	125,64	0,188138
4,845378	647,562194	125,69	0,188190
4,844357	645,367178	125,74	0,187238
4,843296	645,001530	125,80	0,187079
4,842384	643,111409	125,86	0,186259
4,841377	643,660444	125,91	0,186497
4,840352	641,160534	125,98	0,185412
4,839344	640,734132	126,03	0,185227
4,838338	639,393046	126,09	0,184645
4,837347	638,477238	126,14	0,184248
4,836381	638,234222	126,19	0,184142
4,835338	636,221468	126,25	0,183269
4,834376	636,465609	126,30	0,183375
4,833378	635,855820	126,35	0,183110
4,832315	633,844191	126,40	0,182237
4,831371	632,808000	126,47	0,181787
4,830321	632,563859	126,52	0,181681
4,829317	630,003195	126,58	0,180570
4,828357	629,088512	126,63	0,180173
4,827310	628,967004	126,68	0,180120
4,826349	626,954250	126,75	0,179247
4,825389	626,527848	126,80	0,179062
4,824309	626,039567	126,84	0,178850
4,823371	623,478903	126,91	0,177738
4,822363	623,296641	126,96	0,177659
4,821372	623,540782	127,01	0,177765
4,820368	622,016309	127,06	0,177104
4,819344	620,186942	127,12	0,176310
4,818330	620,065434	127,18	0,176257
4,817326	618,236067	127,24	0,175463
4,816388	616,406700	127,29	0,174669
4,815338	616,528208	127,36	0,174722
4,814360	616,101806	127,41	0,174537
4,813361	615,187122	127,45	0,174140
4,812324	613,846036	127,52	0,173558
4,811379	611,772528	127,57	0,172658
4,810360	612,260810	127,62	0,172870
4,809331	609,944286	127,69	0,171864
4,808350	609,700146	127,74	0,171758
4,807398	608,114919	127,80	0,171070
4,806341	608,114919	127,84	0,171070
4,805309	605,675763	127,90	0,170012
4,804351	605,065974	127,96	0,169747
4,803391	604,395431	128,01	0,169456
4,802358	602,505310	128,07	0,168636
4,801338	602,078908	128,12	0,168451
4,800363	601,224978	128,18	0,168080
4,799396	600,554435	128,22	0,167789
4,798326	598,482053	128,29	0,166890
4,797350	597,383983	128,34	0,166413
4,796340	596,164405	128,39	0,165884
4,795362	595,798756	128,45	0,165725
4,794321	594,639932	128,50	0,165222
4,793346	593,482233	128,55	0,164720
4,792330	592,567549	128,61	0,164323
4,791327	592,446042	128,66	0,164270
4,790318	590,128393	128,73	0,163264
4,789339	590,251026	128,78	0,163317
4,788373	588,848061	128,83	0,162708
4,787398	587,567729	128,90	0,162153
4,786371	587,323589	128,95	0,162047
4,785317	584,702171	129,01	0,160909
4,784345	584,275769	129,06	0,160724
4,783313	583,239577	129,11	0,160274
4,782407	583,177698	129,16	0,160248
4,781410	581,592472	129,22	0,159560
4,780365	580,129878	129,28	0,158925
4,779386	579,092562	129,34	0,158475
4,778356	578,300511	129,39	0,158131
4,777372	577,508461	129,44	0,157787
4,776413	575,800601	129,50	0,157046
4,775376	575,312320	129,56	0,156834
4,774372	574,154621	129,62	0,156332
4,773306	574,520269	129,67	0,156490
4,772329	572,325254	129,72	0,155538
4,771350	572,387133	129,77	0,155564
4,770387	570,374379	129,83	0,154691
4,769355	568,667645	129,89	0,153950
4,768326	567,691082	129,94	0,153526
4,767353	566,777524	129,99	0,153130
4,766409	566,899032	130,04	0,153183
4,765390	566,472629	130,09	0,152998
4,764357	564,156106	130,15	0,151992
4,763381	562,936528	130,20	0,151463
4,762378	563,362930	130,25	0,151648
4,761380	562,204106	130,31	0,151145
4,760347	560,313985	130,36	0,150325
4,759346	559,643442	130,43	0,150034
4,758347	557,936708	130,48	0,149293
4,757358	558,118970	130,53	0,149372
4,756377	555,863200	130,59	0,148393
4,755337	555,863200	130,64	0,148393
4,754388	553,728939	130,70	0,147467
4,753314	553,669310	130,76	0,147441
4,752314	553,241782	130,81	0,147255
4,751346	551,290908	130,87	0,146409
4,750341	549,279279	130,92	0,145536
4,749346	549,340033	130,97	0,145562
4,748400	548,669490	131,02	0,145271
4,747394	547,266525	131,08	0,144662
4,746355	546,474474	131,13	0,144318
4,745353	544,828494	131,18	0,143604
4,744395	542,876494	131,25	0,142757
4,743369	543,304021	131,30	0,142942
4,742358	542,266705	131,35	0,142492
4,741304	539,767920	131,42	0,141408
4,740377	539,889428	131,47	0,141460
4,739349	539,218885	131,52	0,141169
4,738397	537,084623	131,58	0,140243
4,737393	536,718975	131,63	0,140084
4,736373	535,194502	131,70	0,139423
4,735378	535,499397	131,75	0,139555
4,734379	534,036803	131,80	0,138920
4,733364	532,573085	131,87	0,138285
4,732363	532,207436	131,92	0,138126
4,731406	531,048612	131,97	0,137624
4,730333	528,853597	132,03	0,136671
4,729370	528,609456	132,08	0,136565
4,728374	527,817405	132,14	0,136221
4,727399	525,683144	132,19	0,135295
4,727325	525,317495	132,24	0,135136
4,728370	525,683144	132,29	0,135295
4,729425	525,256741	132,34	0,135110
4,730355	526,537073	132,39	0,135666
4,731393	528,427194	132,46	0,136486
4,732401	528,243808	132,51	0,136406
4,733367	529,951667	132,56	0,137147
4,734435	530,622210	132,61	0,137438
4,735430	531,414261	132,66	0,137782
4,736378	533,061366	132,71	0,138497
4,737388	534,340573	132,78	0,139052
4,738409	534,707346	132,84	0,139211
4,739439	536,169940	132,90	0,139846
4,740370	537,145377	132,95	0,140270
4,741311	537,268010	133,00	0,140323
4,742441	538,609096	133,05	0,140905
4,743321	540,682604	133,11	0,141805
4,744407	541,109006	133,16	0,141990
4,745333	541,291268	133,21	0,142069
4,746387	543,242142	133,26	0,142916
4,747384	544,156826	133,31	0,143313
4,748398	544,889248	133,36	0,143630
4,749362	546,474474	133,43	0,144318
4,750406	547,389158	133,48	0,144715
4,751334	547,997822	133,53	0,144979
4,752407	548,364595	133,58	0,145139
4,753360	550,863380	133,64	0,146223
4,754354	550,620365	133,69	0,146118
4,755356	551,351662	133,74	0,146435
4,756355	553,302536	133,79	0,147282
4,757375	554,522114	133,84	0,147811
4,758368	555,315290	133,91	0,148155
4,759346	555,925079	133,96	0,148420
4,760397	556,594497	134,01	0,148710
4,761379	557,753321	134,06	0,149213
4,762403	560,192477	134,12	0,150272
4,763374	560,497372	134,18	0,150404
4,764324	561,046407	134,23	0,150643
4,765353	562,936528	134,29	0,151463
4,766327	564,216860	134,37	0,152019
4,767373	563,850086	134,42	0,151859
4,768323	565,740207	134,47	0,152680
4,769335	565,253051	134,52	0,152468
4,770377	568,179363	134,57	0,153738
4,771335	567,874469	134,62	0,153606
4,772364	570,008731	134,67	0,154532
4,773393	571,410570	134,74	0,155141
4,774379	572,203746	134,79	0,155485
4,775362	572,752781	134,84	0,155723
4,776414	574,459515	134,90	0,156464
4,777308	573,971234	134,95	0,156252
4,778363	576,288882	135,00	0,157258
4,779375	576,166250	135,06	0,157205
4,780377	578,239757	135,13	0,158104
4,781365	578,422019	135,18	0,158184
4,782410	579,641597	135,23	0,158713
4,783366	580,800421	135,28	0,159216
4,784347	582,019999	135,33	0,159745
4,785351	583,056191	135,39	0,160195
4,786370	584,336523	135,44	0,160750
4,787385	585,007065	135,50	0,161042
4,788350	585,007065	135,55	0,161042
4,789377	586,653046	135,60	0,161756
4,790375	588,421659	135,66	0,162523
4,791415	588,360905	135,71	0,162497
4,792400	589,823499	135,76	0,163132
4,793378	590,372534	135,81	0,163370
4,794383	592,506795	135,87	0,164296
4,795372	593,421479	135,94	0,164693
4,796314	594,092022	135,99	0,164984
4,797365	595,798756	136,04	0,165725
4,798323	595,249721	136,09	0,165487
4,799372	597,749631	136,15	0,166572
4,800367	597,688877	136,20	0,166545
4,801418	598,420174	136,25	0,166863
4,802365	599,944646	136,32	0,167524
4,803378	601,651381	136,37	0,168265
4,804331	601,591752	136,42	0,168239
4,805357	602,627943	136,47	0,168689
4,806357	604,334677	136,52	0,169430
4,807356	605,310115	136,57	0,169853
4,808372	606,895341	136,64	0,170541
4,809390	607,139482	136,69	0,170647
4,810366	607,749271	136,74	0,170912
4,811328	609,578638	136,80	0,171706
4,812373	611,406880	136,86	0,172499
4,813330	611,285372	136,91	0,172446
4,814302	613,480388	136,97	0,173399
4,815345	614,211685	137,02	0,173716
4,816296	614,760720	137,08	0,173955
4,817348	615,370509	137,13	0,174219
4,818373	616,650841	137,19	0,174775
4,819395	618,296821	137,25	0,175489
4,820363	619,211505	137,31	0,175886
4,821412	619,821294	137,38	0,176151
4,822331	620,369204	137,43	0,176389
4,823368	621,467274	137,48	0,176865
4,824383	622,442711	137,53	0,177289
4,825326	623,783797	137,59	0,177871
4,826427	624,088692	137,64	0,178003
4,827387	625,978813	137,70	0,178823
4,828357	627,015004	137,75	0,179273
4,829393	627,808180	137,80	0,179617
4,830367	628,234582	137,85	0,179802
4,831367	629,576793	137,92	0,180385
4,832326	630,429597	137,97	0,180755
4,833327	632,624613	138,03	0,181708
4,834298	632,624613	138,08	0,181708
4,835385	632,868754	138,13	0,181813
4,836325	635,673558	138,20	0,183031
4,837337	636,221468	138,25	0,183269
4,838322	636,893136	138,30	0,183560
4,839360	637,745941	138,35	0,183930
4,840284	639,209659	138,41	0,184565
4,841357	640,245851	138,46	0,185015
4,842335	641,586937	138,53	0,185597
4,843310	642,014464	138,58	0,185783
4,844369	642,258605	138,63	0,185889
4,845374	643,294796	138,68	0,186338
4,846332	645,672073	138,74	0,187370
4,847295	646,342616	138,79	0,187661
4,848321	647,867088	138,85	0,188323
4,849267	647,196546	138,90	0,188032
4,850362	650,306245	138,97	0,189381
4,851324	650,366998	139,02	0,189408
4,852299	651,281682	139,07	0,189805
4,853343	650,855280	139,12	0,189620
4,854335	653,171803	139,19	0,190625
4,855331	654,329502	139,24	0,191127
4,856360	654,878537	139,29	0,191366
4,857328	656,707904	139,35	0,192160
4,858334	657,378447	139,40	0,192451
4,859383	657,195060	139,45	0,192371
4,860251	658,781412	139,51	0,193060
4,861328	660,975302	139,58	0,194012
4,862369	660,914549	139,63	0,193985
4,863284	662,622408	139,68	0,194727
4,864338	663,840861	139,73	0,195255
4,865368	664,938931	139,79	0,195732
4,866324	665,670228	139,84	0,196049
4,867348	666,584911	139,89	0,196446
4,868355	667,865243	139,95	0,197002
4,869329	667,925997	140,00	0,197028
4,870367	669,755364	140,07	0,197822
4,871341	671,340591	140,12	0,198510
4,872347	671,889626	140,17	0,198749
4,873333	672,743556	140,23	0,199119
4,874340	673,901255	140,28	0,199622
4,875324	675,609114	140,35	0,200363
4,876370	675,364973	140,40	0,200257
4,877350	676,279657	140,45	0,200654
4,878373	677,681497	140,50	0,201262
4,879372	678,656934	140,56	0,201686
4,880369	678,901075	140,61	0,201792
4,881360	679,571618	140,66	0,202083
4,882368	682,193035	140,72	0,203220
4,883321	681,766633	140,78	0,203035
4,884307	684,388051	140,84	0,204173
4,885322	684,815578	140,89	0,204358
4,886373	686,034031	140,94	0,204887
4,887354	687,497750	141,00	0,205522
4,888314	688,046785	141,06	0,205761
4,889396	689,509379	141,12	0,206396
4,890293	690,668203	141,19	0,206898
4,891341	691,277992	141,24	0,207163
4,892305	690,973097	141,29	0,207031
4,893295	693,289621	141,35	0,208036
4,894344	694,265058	141,41	0,208459
4,895413	694,143550	141,46	0,208407
4,896319	696,764968	141,51	0,209544
4,897347	697,069862	141,56	0,209677
4,898317	697,497390	141,61	0,209862
4,899311	699,264878	141,67	0,210629
4,900289	700,423702	141,72	0,211132
4,901342	701,825542	141,78	0,211741
4,902327	702,130436	141,83	0,211873
4,903339	703,105874	141,88	0,212296
4,904327	705,056749	141,95	0,213143
4,905319	705,605784	142,00	0,213381
4,906303	706,641975	142,07	0,213831
4,907340	707,435151	142,12	0,214175
4,908335	708,227202	142,17	0,214519
4,909238	709,203764	142,22	0,214943
4,910325	710,971252	142,29	0,215710
4,911332	711,581041	142,34	0,215975
4,912352	712,069322	142,40	0,216187
4,913320	713,166268	142,45	0,216663
4,914261	713,836811	142,50	0,216954
4,915269	715,848439	142,55	0,217827
4,916326	715,848439	142,60	0,217827
4,917333	716,702369	142,66	0,218197
4,918338	718,836631	142,72	0,219124
4,919317	718,713998	142,78	0,219070
4,920305	719,628681	142,83	0,219467
4,921320	720,543365	142,88	0,219864
4,922335	723,165908	142,93	0,221002
4,923317	724,141345	142,99	0,221426
4,924301	724,811888	143,04	0,221717
4,925259	726,092220	143,10	0,222272
4,926256	726,031466	143,15	0,222246
4,927305	728,225356	143,22	0,223198
4,928296	727,982341	143,27	0,223093
4,929346	729,079286	143,32	0,223569
4,930357	730,787145	143,38	0,224310
4,931367	731,944844	143,43	0,224812
4,932321	733,834965	143,48	0,225633
4,933306	734,628141	143,55	0,225977
4,934365	734,444754	143,60	0,225897
4,935370	735,908473	143,65	0,226533
4,936368	737,615207	143,71	0,227273
4,937313	736,822032	143,76	0,226929
4,938349	738,834785	143,82	0,227803
4,939335	739,688715	143,87	0,228173
4,940331	741,273942	143,93	0,228861
4,941296	740,908293	143,98	0,228703
4,942397	741,944484	144,03	0,229152
4,943292	743,041430	144,08	0,229628
4,944289	744,749289	144,15	0,230370
4,945316	745,724726	144,19	0,230793
4,946308	747,005058	144,25	0,231349
4,947295	747,908491	144,31	0,231741
4,948277	748,102004	144,36	0,231825
4,949352	748,772546	144,41	0,232116
4,950313	751,455843	144,48	0,233280
4,951369	751,455843	144,53	0,233280
4,952358	752,003753	144,58	0,233518
4,953332	754,442909	144,64	0,234577
4,954330	754,687050	144,69	0,234683
4,955358	755,113452	144,74	0,234868
4,956288	756,698679	144,80	0,235556
4,957302	758,162397	144,85	0,236191
4,958263	758,528046	144,92	0,236350
4,959275	759,077081	144,97	0,236588
4,960333	760,418167	145,02	0,237170
4,961320	761,210217	145,07	0,237514
4,962311	763,405233	145,14	0,238466
4,963326	764,075776	145,20	0,238757
4,964297	764,075776	145,25	0,238757
4,965318	765,295354	145,30	0,239287
4,966265	766,270791	145,35	0,239710
4,967323	768,039405	145,41	0,240478
4,968310	768,893334	145,46	0,240848
4,969376	769,806893	145,52	0,241245
4,970314	770,478561	145,57	0,241536
4,971389	772,246049	145,63	0,242303
4,972333	772,795084	145,68	0,242542
4,973266	774,380310	145,75	0,243229
4,974284	774,319556	145,80	0,243203
4,975329	775,782150	145,85	0,243838
4,976311	776,514572	145,91	0,244156
4,977352	777,550763	145,96	0,244605
4,978303	779,257497	146,02	0,245346
4,979302	780,234060	146,07	0,245770
4,980312	780,172181	146,12	0,245743
4,981339	782,183810	146,19	0,246616
4,982337	782,427950	146,24	0,246722
4,983323	783,159247	146,29	0,247040
4,984308	784,622966	146,36	0,247675
4,985318	786,024806	146,41	0,248283
4,986322	787,549278	146,46	0,248945
4,987358	788,647348	146,52	0,249421
4,988273	788,220946	146,57	0,249236
4,989293	789,562032	146,62	0,249818
4,990298	791,268766	146,69	0,250559
4,991254	791,939309	146,74	0,250850
4,992309	793,037379	146,80	0,251327
4,993319	793,586415	146,85	0,251565
4,994313	794,317711	146,90	0,251882
4,995329	796,390094	146,97	0,252782
4,996294	795,963692	147,02	0,252597
4,997283	797,365531	147,07	0,253205
4,998351	799,255652	147,13	0,254025
4,999318	800,353723	147,18	0,254502
5,000323	800,535984	147,23	0,254581
5,001345	802,914387	147,30	0,255613
5,002299	802,731000	147,35	0,255534
5,003356	803,584929	147,41	0,255904
5,004241	805,414297	147,46	0,256698
5,005312	806,573121	147,53	0,257201
5,006295	807,365171	147,58	0,257545
5,007285	808,645503	147,65	0,258101
5,008327	809,255292	147,71	0,258365
5,009292	809,011152	147,76	0,258259
5,010285	811,327675	147,81	0,259265
5,011330	812,304237	147,86	0,259688
5,012272	813,035534	147,93	0,260006
5,013264	814,437374	147,98	0,260614
5,014283	815,229425	148,03	0,260958
5,015283	816,693143	148,10	0,261593
5,016303	817,912721	148,15	0,262123
5,017347	817,425565	148,20	0,261911
5,018306	819,863596	148,27	0,262969
5,019255	820,534139	148,34	0,263260
5,020344	821,692963	148,39	0,263763
5,021288	821,814471	148,44	0,263816
5,022298	822,729155	148,50	0,264213
5,023323	823,704592	148,55	0,264636
5,024283	825,412451	148,62	0,265377
5,025268	825,229065	148,67	0,265298
5,026293	827,119186	148,72	0,266118
5,027262	827,973115	148,77	0,266489
5,028321	828,704412	148,82	0,266806
5,029343	830,960181	148,89	0,267785
5,030296	830,716041	148,94	0,267679
5,031334	832,850302	149,00	0,268605
5,032304	832,850302	149,05	0,268605
5,033348	834,861931	149,11	0,269479
5,034268	835,167951	149,16	0,269611
5,035259	836,813931	149,22	0,270326
5,036305	837,301087	149,27	0,270537
5,037268	838,581419	149,33	0,271093
5,038302	839,617611	149,38	0,271542
5,039241	840,045138	149,43	0,271728
5,040311	841,935259	149,48	0,272548
5,041251	842,849942	149,55	0,272945
5,042216	844,007641	149,60	0,273448
5,043251	843,946888	149,66	0,273421
5,044271	845,105712	149,71	0,273924
5,045261	847,422235	149,76	0,274930
5,046255	847,543743	149,81	0,274982
5,047280	848,763321	149,87	0,275512
5,048301	850,043653	149,93	0,276067
5,049280	849,678004	149,98	0,275909
5,050338	851,202477	150,03	0,276570
5,051303	852,543563	150,08	0,277152
5,052294	854,251422	150,14	0,277894
5,053291	854,738578	150,21	0,278105
5,054320	854,494438	150,26	0,277999
5,055255	855,897402	150,31	0,278608
5,056275	856,812086	150,36	0,279005
5,057281	858,458066	150,41	0,279719
5,058277	859,555012	150,46	0,280195
5,059260	861,200992	150,53	0,280910
5,060233	861,323625	150,58	0,280963
5,061336	862,543203	150,63	0,281492
5,062224	864,738218	150,69	0,282445
5,063261	864,494078	150,74	0,282339
5,064217	866,140058	150,80	0,283053
5,065317	866,810601	150,86	0,283344
5,066253	867,481144	150,91	0,283635
5,067244	867,907546	150,96	0,283820
5,068264	869,005616	151,01	0,284297
5,069253	870,164441	151,06	0,284800
5,070246	872,115315	151,13	0,285646
5,071242	872,969245	151,20	0,286017
5,072257	873,639788	151,27	0,286308
5,073271	874,492593	151,32	0,286678
5,074269	875,956311	151,37	0,287313
5,075277	875,895557	151,42	0,287287
5,076223	877,967940	151,49	0,288187
5,077262	879,126764	151,54	0,288689
5,078268	878,638483	151,59	0,288478
5,079312	879,492413	151,64	0,288848
5,080265	881,870815	151,69	0,289880
5,081234	882,846252	151,75	0,290304
5,082230	884,065830	151,80	0,290833
5,083276	883,394162	151,85	0,290542
5,084244	886,321600	151,90	0,291812
5,085243	887,479299	151,95	0,292314
5,086269	886,808756	152,00	0,292023
5,087334	889,125279	152,07	0,293029
5,088208	889,918455	152,12	0,293373
5,089339	891,564435	152,18	0,294087
5,090261	891,869330	152,23	0,294220
5,091254	892,357611	152,28	0,294432
5,092244	893,210415	152,33	0,294802
5,093220	894,856396	152,39	0,295516
5,094301	895,283923	152,44	0,295702
5,095306	896,320114	152,49	0,296151
5,096270	898,026849	152,56	0,296892
5,097224	898,698517	152,61	0,297184
5,098217	899,673954	152,67	0,297607
5,099278	899,734708	152,72	0,297633
5,100237	901,319934	152,77	0,298321
5,101245	903,454196	152,84	0,299248
5,102225	904,063985	152,89	0,299512
5,103238	903,698337	152,94	0,299354
5,103224	905,282438	152,99	0,300041
5,103181	907,111805	153,04	0,300835
5,103245	906,197122	153,10	0,300438
5,103237	905,954106	153,17	0,300333
5,103276	906,197122	153,22	0,300438
5,103223	906,441262	153,28	0,300544
5,103243	906,441262	153,32	0,300544
5,103222	905,770719	153,37	0,300253
5,103190	906,014860	153,44	0,300359
5,103225	905,587333	153,50	0,300173
5,103256	906,197122	153,55	0,300438
5,103193	906,257876	153,60	0,300464
5,103262	906,136368	153,65	0,300412
5,103257	906,257876	153,72	0,300464
5,103288	906,197122	153,77	0,300438
5,103261	906,075614	153,82	0,300385
5,103232	905,221684	153,87	0,300015
5,103224	906,075614	153,94	0,300385
5,103276	906,380508	154,00	0,300518
5,103265	905,892227	154,05	0,300306
5,103204	905,831473	154,10	0,300279
5,103248	906,075614	154,15	0,300385
5,103236	905,892227	154,21	0,300306
5,103236	906,136368	154,26	0,300412
5,103175	906,319754	154,32	0,300491
5,103265	906,197122	154,37	0,300438
5,103288	906,441262	154,42	0,300544
5,103192	906,075614	154,47	0,300385
5,103241	906,014860	154,53	0,300359
5,103285	905,892227	154,58	0,300306
5,103220	905,649212	154,63	0,300200
5,103291	905,770719	154,70	0,300253
5,103204	906,624649	154,75	0,300624
5,103251	905,770719	154,80	0,300253
5,103288	905,526579	154,85	0,300147
5,103252	906,075614	154,90	0,300385
5,103306	906,075614	154,96	0,300385
5,103239	905,770719	155,01	0,300253
5,103230	905,954106	155,06	0,300333
5,103250	905,709965	155,12	0,300227
5,103250	906,014860	155,17	0,300359
5,103310	905,892227	155,23	0,300306
5,103265	906,136368	155,28	0,300412
5,103203	906,136368	155,33	0,300412
5,103245	905,649212	155,38	0,300200
5,103263	906,014860	155,45	0,300359
5,103262	905,892227	155,50	0,300306
5,103328	906,014860	155,56	0,300359
5,103239	905,770719	155,61	0,300253
5,103243	906,257876	155,67	0,300464
5,103281	905,770719	155,72	0,300253
5,103204	905,587333	155,77	0,300173
5,103253	906,075614	155,84	0,300385
5,103262	905,892227	155,89	0,300306
5,103224	906,197122	155,95	0,300438
5,103228	905,526579	156,00	0,300147
5,103299	906,319754	156,06	0,300491
5,103287	905,831473	156,12	0,300279
5,103244	906,136368	156,17	0,300412
5,103265	905,892227	156,24	0,300306
5,103250	905,770719	156,29	0,300253
5,103262	905,709965	156,34	0,300227
5,103219	905,709965	156,41	0,300227
5,103194	905,954106	156,47	0,300333
5,103233	905,770719	156,52	0,300253
5,103281	905,465825	156,59	0,300121
5,103315	905,344317	156,65	0,300068
5,103246	905,709965	156,71	0,300227
5,103215	905,709965	156,79	0,300227
5,103236	906,014860	156,86	0,300359
5,103259	905,770719	156,91	0,300253
5,103235	905,405071	156,98	0,300094
5,103223	905,526579	157,07	0,300147
5,103205	906,136368	157,12	0,300412
5,103252	905,709965	157,17	0,300227
5,103280	905,709965	157,22	0,300227
5,103304	905,770719	157,27	0,300253
5,103317	906,014860	157,34	0,300359
5,103289	906,197122	157,39	0,300438
5,103264	906,075614	157,44	0,300385
5,103279	905,160930	157,49	0,299988
5,103219	906,685403	157,54	0,300650
5,103233	906,014860	157,59	0,300359
5,103261	905,709965	157,64	0,300227
5,103248	905,709965	157,69	0,300227
5,103221	906,075614	157,74	0,300385
5,103266	905,892227	157,79	0,300306
5,103294	906,136368	157,85	0,300412
5,103239	906,014860	157,91	0,300359
5,103238	905,587333	157,96	0,300173
5,103263	906,014860	158,01	0,300359
5,103244	906,319754	158,06	0,300491
5,103314	906,075614	158,11	0,300385
5,103227	905,221684	158,16	0,300015
5,103216	905,649212	158,21	0,300200
5,103260	906,136368	158,26	0,300412
5,103237	905,526579	158,32	0,300147
5,103203	905,770719	158,37	0,300253
5,103241	906,257876	158,42	0,300464
5,103279	905,344317	158,47	0,300068
5,102282	905,770719	158,52	0,300253
5,101303	904,916790	158,57	0,299882
5,100304	904,063985	158,64	0,299512
5,099264	904,063985	158,72	0,299512
5,098312	901,502196	158,77	0,298400
5,097217	901,075794	158,84	0,298215
5,096297	900,710145	158,89	0,298057
5,095265	898,820024	158,96	0,297236
5,094280	898,515130	159,03	0,297104
5,093256	896,136728	159,11	0,296072
5,092265	896,442747	159,17	0,296205
5,091246	894,734888	159,22	0,295463
5,090214	893,577189	159,30	0,294961
5,089227	892,723259	159,35	0,294590
5,088244	892,479119	159,40	0,294484
5,087241	890,162595	159,47	0,293479
5,086303	890,467490	159,52	0,293611
5,085239	889,492052	159,57	0,293188
5,084237	887,662685	159,64	0,292394
5,083258	885,955951	159,69	0,291653
5,082282	885,406916	159,74	0,291415
5,081307	884,613740	159,79	0,291071
5,080253	884,003951	159,84	0,290806
5,079261	883,272654	159,90	0,290489
5,078299	882,175709	159,96	0,290013
5,077348	881,321780	160,01	0,289642
5,076286	880,346342	160,06	0,289219
5,075250	878,090573	160,13	0,288240
5,074254	877,297397	160,18	0,287896
5,073279	876,321960	160,23	0,287472
5,072227	875,772924	160,28	0,287234
5,071255	874,859366	160,35	0,286837
5,070275	872,846612	160,40	0,285964
5,069284	873,212261	160,45	0,286123
5,068262	872,480964	160,50	0,285805
5,067283	871,139878	160,55	0,285223
5,066269	868,822230	160,61	0,284217
5,065332	868,395827	160,66	0,284032
5,064275	866,871355	160,73	0,283371
5,063242	866,079304	160,78	0,283027
5,062331	865,895917	160,83	0,282947
5,061284	863,457886	160,88	0,281889
5,060243	863,457886	160,95	0,281889
5,059308	863,884289	161,00	0,282074
5,058248	862,176429	161,05	0,281333
5,057242	861,018730	161,10	0,280831
5,056275	859,799152	161,15	0,280301
5,055350	857,726770	161,22	0,279402
5,054332	858,153172	161,27	0,279587
5,053203	856,202297	161,32	0,278740
5,052249	854,982719	161,37	0,278211
5,051268	854,068035	161,44	0,277814
5,050273	853,702387	161,49	0,277655
5,049313	852,238668	161,54	0,277020
5,048309	851,263231	161,59	0,276597
5,047295	850,776075	161,64	0,276385
5,046281	848,581059	161,70	0,275433
5,045251	848,581059	161,75	0,275433
5,044260	846,630184	161,81	0,274586
5,043279	846,933954	161,86	0,274718
5,042261	845,715501	161,91	0,274189
5,041243	844,495923	161,97	0,273660
5,040302	843,520485	162,02	0,273236
5,039292	842,971450	162,07	0,272998
5,038321	840,959821	162,12	0,272125
5,037260	839,556857	162,18	0,271516
5,036284	839,922505	162,23	0,271675
5,035265	837,850122	162,28	0,270775
5,034288	835,777740	162,35	0,269876
5,033229	835,655107	162,41	0,269823
5,032268	835,533599	162,46	0,269770
5,031306	834,374775	162,51	0,269267
5,030301	833,338584	162,56	0,268817
5,029328	831,387709	162,61	0,267971
5,028291	831,265076	162,68	0,267917
5,027261	829,558342	162,73	0,267177
5,026295	827,668221	162,79	0,266356
5,025276	827,728975	162,84	0,266383
5,024257	826,265256	162,91	0,265748
5,023290	825,778100	162,96	0,265536
5,022282	825,716221	163,01	0,265509
5,021291	823,217436	163,07	0,264425
5,020315	823,278190	163,13	0,264451
5,019297	821,266561	163,18	0,263578
5,018228	820,778280	163,24	0,263366
5,017282	818,827405	163,29	0,262520
5,016246	817,607827	163,35	0,261990
5,015260	818,278370	163,40	0,262281
5,014306	816,388249	163,46	0,261461
5,013301	814,681515	163,51	0,260720
5,012285	814,253987	163,57	0,260535
5,011256	813,096288	163,62	0,260032
5,010256	812,242359	163,68	0,259662
5,009300	811,876710	163,73	0,259503
5,008261	810,962027	163,78	0,259106
5,007263	808,828890	163,84	0,258180
5,006285	807,304417	163,90	0,257519
5,005279	807,791574	163,95	0,257730
5,004262	805,596558	164,01	0,256777
5,003301	804,316226	164,06	0,256222
5,002332	804,681875	164,11	0,256380
5,001293	802,853633	164,17	0,255587
5,000306	803,096648	164,22	0,255692
4,999285	800,475230	164,30	0,254555
4,998238	800,292969	164,35	0,254476
4,997275	798,645863	164,41	0,253761
4,996315	798,097953	164,46	0,253523
4,995305	796,817621	164,51	0,252967
4,994219	796,634235	164,56	0,252888
4,993290	794,134325	164,63	0,251803
4,992329	793,403028	164,68	0,251485
4,991300	791,939309	164,75	0,250850
4,990266	791,939309	164,80	0,250850
4,989309	791,757047	164,85	0,250771
4,988293	789,257137	164,90	0,249686
4,987325	787,854173	164,98	0,249077
4,986277	787,183630	165,03	0,248786
4,985287	787,488524	165,08	0,248918
4,984292	786,513087	165,14	0,248495
4,983304	785,659157	165,19	0,248125
4,982320	783,465267	165,25	0,247172
4,981289	782,427950	165,31	0,246722
4,980292	781,818161	165,36	0,246458
4,979317	780,660462	165,41	0,245955
4,978330	779,867287	165,47	0,245611
4,977275	778,282060	165,52	0,244923
4,976332	778,526201	165,58	0,245029
4,975258	776,819466	165,63	0,244288
4,974329	775,660642	165,69	0,243785
4,973344	774,196924	165,74	0,243150
4,972269	774,441064	165,79	0,243256
4,971314	772,246049	165,84	0,242303
4,970257	771,392119	165,90	0,241933
4,969280	769,746139	165,97	0,241218
4,968283	769,806893	166,02	0,241245
4,967315	768,344299	166,07	0,240610
4,966346	766,941334	166,13	0,240001
4,965283	765,539495	166,19	0,239393
4,964300	764,929706	166,25	0,239128
4,963347	763,893514	166,31	0,238678
4,962320	762,857323	166,37	0,238229
4,961305	763,100338	166,41	0,238334
4,960264	761,698499	166,47	0,237726
4,959335	760,967202	166,53	0,237408
4,958287	758,954448	166,58	0,236535
4,957289	757,857503	166,63	0,236059
4,956293	756,698679	166,68	0,235556
4,955327	755,783995	166,74	0,235159
4,954288	754,626296	166,81	0,234656
4,953420	754,930066	166,86	0,234788
4,952313	752,796929	166,92	0,233862
4,951286	751,760738	166,97	0,233413
4,950373	751,821492	167,02	0,233439
4,949349	750,052878	167,07	0,232671
4,948288	748,711793	167,14	0,232089
4,947255	747,614847	167,21	0,231613
4,946322	746,577531	167,27	0,231163
4,945334	745,967742	167,32	0,230898
4,944351	744,931551	167,37	0,230449
4,943291	744,565902	167,42	0,230290
4,942298	742,370887	167,50	0,229337
4,941328	742,492395	167,55	0,229390
4,940341	740,175871	167,60	0,228385
4,939278	739,018172	167,65	0,227882
4,938344	739,688715	167,70	0,228173
4,937352	737,371067	167,76	0,227167
4,936258	736,090735	167,82	0,226612
4,935333	736,029981	167,87	0,226585
4,934335	735,054543	167,92	0,226162
4,933304	734,688895	167,98	0,226003
4,932264	732,859528	168,03	0,225209
4,931371	731,579196	168,09	0,224654
4,930353	730,115477	168,14	0,224019
4,929275	729,993970	168,20	0,223966
4,928389	728,897024	168,25	0,223490
4,927285	728,043095	168,30	0,223119
4,926302	727,189165	168,35	0,222749
4,925285	724,811888	168,42	0,221717
4,924310	724,141345	168,48	0,221426
4,923294	723,713818	168,53	0,221240
4,922344	722,433486	168,59	0,220685
4,921329	720,543365	168,66	0,219864
4,920318	721,092400	168,73	0,220103
4,919286	718,531736	168,79	0,218991
4,918241	717,556299	168,88	0,218568
4,917289	716,825002	168,97	0,218250
4,916324	715,605424	169,03	0,217721
4,915323	715,300529	169,11	0,217589
4,914368	714,080951	169,20	0,217060
4,913309	712,190830	169,27	0,216239
4,912270	712,679111	169,32	0,216451
4,911307	712,130076	169,37	0,216213
4,910351	709,569412	169,42	0,215102
4,909321	709,020377	169,49	0,214863
4,908330	707,984186	169,55	0,214414
4,907313	707,007623	169,60	0,213990
4,906265	705,789171	169,66	0,213461
4,905357	705,910678	169,71	0,213514
4,904274	704,751854	169,76	0,213011
4,903283	702,862858	169,82	0,212191
4,902353	702,923612	169,87	0,212217
4,901283	701,459893	169,92	0,211582
4,900277	700,362948	169,98	0,211106
4,899373	698,899230	170,03	0,210471
4,898355	697,740405	170,08	0,209968
4,897315	696,338566	170,14	0,209359
4,896296	695,363128	170,19	0,208936
4,895352	694,509199	170,26	0,208565
4,894334	694,020917	170,31	0,208354
4,893316	692,192675	170,37	0,207560
4,892321	691,338746	170,43	0,207189
4,891308	691,217238	170,48	0,207137
4,890311	689,082976	170,55	0,206210
4,889314	689,266363	170,60	0,206290
4,888369	687,436996	170,65	0,205496
4,887317	687,741890	170,70	0,205628
4,886324	686,400805	170,75	0,205046
4,885318	684,083156	170,80	0,204041
4,884363	683,107719	170,86	0,203617
4,883347	683,046965	170,91	0,203591
4,882394	681,645125	170,97	0,202982
4,881329	680,547055	171,02	0,202506
4,880371	679,022582	171,09	0,201844
4,879367	678,230532	171,16	0,201500
4,878339	677,194340	171,21	0,201051
4,877309	676,889446	171,26	0,200918
4,876352	676,035516	171,31	0,200548
4,875347	674,266903	171,38	0,199780
4,874352	672,986571	171,44	0,199225
4,873281	672,071888	171,51	0,198828
4,872374	672,316028	171,57	0,198934
4,871339	670,487786	171,62	0,198140
4,870314	669,633857	171,67	0,197770
4,869349	667,743736	171,73	0,196949
4,868316	667,865243	171,78	0,197002
4,867379	666,768298	171,83	0,196526
4,866392	664,878177	171,90	0,195706
4,865345	664,816298	171,95	0,195679
4,864374	663,475212	172,00	0,195097
4,863375	661,768478	172,07	0,194356
4,862387	660,793041	172,12	0,193933
4,861325	660,732287	172,19	0,193906
4,860318	658,963674	172,24	0,193139
4,859408	657,012799	172,30	0,192292
4,858361	656,403010	172,37	0,192027
4,857331	657,135432	172,42	0,192345
4,856339	655,549080	172,47	0,191657
4,855345	653,660084	172,55	0,190837
4,854375	652,501260	172,60	0,190334
4,853374	652,257119	172,65	0,190228
4,852284	650,306245	172,72	0,189381
4,851386	649,573823	172,77	0,189063
4,850288	648,598385	172,82	0,188640
4,849360	647,075038	172,90	0,187979
4,848385	646,647510	172,95	0,187793
4,847274	646,038846	173,00	0,187529
4,846351	644,575128	173,07	0,186894
4,845328	644,209479	173,13	0,186735
4,844329	643,234042	173,18	0,186312
4,843353	641,283167	173,25	0,185465
4,842389	641,526183	173,30	0,185571
4,841357	638,965519	173,37	0,184459
4,840297	637,929327	173,42	0,184010
4,839310	638,599870	173,47	0,184301
4,838348	636,221468	173,52	0,183269
4,837408	636,039207	173,57	0,183189
4,836330	634,270593	173,65	0,182422
4,835371	633,844191	173,71	0,182237
4,834385	632,746121	173,76	0,181760
4,833370	631,832562	173,81	0,181364
4,832367	630,124703	173,87	0,180623
4,831345	628,905125	173,94	0,180093
4,830350	629,027758	173,99	0,180146
4,829374	627,015004	174,06	0,179273
4,828326	626,771988	174,12	0,179167
4,827334	625,918059	174,16	0,178797
4,826408	625,003375	174,22	0,178400
4,825375	622,686852	174,27	0,177395
4,824327	621,893676	174,36	0,177050
4,823341	620,431083	174,42	0,176416
4,822362	620,675223	174,47	0,176521
4,821428	618,601716	174,52	0,175622
4,820367	619,028118	174,58	0,175807
4,819348	617,016489	174,63	0,174934
4,818376	615,736157	174,70	0,174378
4,817361	615,309755	174,75	0,174193
4,816358	613,968669	174,81	0,173611
4,815317	613,419634	174,86	0,173373
4,814339	611,955915	174,91	0,172737
4,813346	611,346126	174,96	0,172473
4,812345	610,370689	175,04	0,172049
4,811386	608,906970	175,10	0,171414
4,810367	608,724708	175,15	0,171335
4,809390	607,383623	175,21	0,170753
4,808366	605,859150	175,26	0,170091
4,807343	603,664135	175,34	0,169139
4,806340	603,480748	175,40	0,169059
4,805404	603,603381	175,45	0,169112
4,804318	601,651381	175,50	0,168265
4,803358	601,529873	175,55	0,168212
4,802344	599,091842	175,60	0,167154
4,801360	598,482053	175,68	0,166890
4,800373	597,933018	175,73	0,166651
4,799318	597,079088	175,78	0,166281
4,798369	594,944826	175,83	0,165354
4,797367	594,884073	175,88	0,165328
4,796352	593,177338	175,96	0,164587
4,795328	592,993952	176,01	0,164508
4,794364	590,798936	176,06	0,163555
4,793295	590,433288	176,12	0,163396
4,792351	589,518604	176,17	0,163000
4,791353	588,238272	176,22	0,162444
4,790360	586,775679	176,29	0,161809
4,789371	587,080573	176,35	0,161941
4,788387	585,251206	176,40	0,161147
4,787337	585,190452	176,45	0,161121
4,786331	583,543347	176,50	0,160406
4,785339	583,726734	176,55	0,160486
4,784379	581,287577	176,63	0,159427
4,783377	581,287577	176,68	0,159427
4,782356	579,336703	176,73	0,158581
4,781368	578,422019	176,78	0,158184
4,780342	577,385828	176,83	0,157734
4,779388	576,593777	176,88	0,157390
4,778457	574,825164	176,95	0,156623
4,777411	574,459515	177,00	0,156464
4,776388	573,849726	177,05	0,156199
4,775385	572,081113	177,10	0,155432
4,774329	572,203746	177,16	0,155485
4,773340	569,521574	177,22	0,154321
4,772369	569,154801	177,28	0,154162
4,771357	568,605766	177,33	0,153923
4,770397	567,387313	177,38	0,153395
4,769377	566,838278	177,43	0,153156
4,768368	565,008911	177,48	0,152362
4,767345	564,156106	177,55	0,151992
4,766378	563,484438	177,60	0,151701
4,765385	562,692387	177,65	0,151357
4,764304	561,959965	177,70	0,151039
4,763400	561,228669	177,75	0,150722
4,762424	559,582688	177,80	0,150007
4,761365	558,058216	177,88	0,149346
4,760381	557,814075	177,94	0,149240
4,759363	556,412235	177,99	0,148631
4,758377	555,680939	178,04	0,148314
4,757404	554,948517	178,09	0,147996
4,756391	552,571240	178,15	0,146964
4,755399	552,571240	178,21	0,146964
4,754345	551,351662	178,26	0,146435
4,753330	550,071330	178,31	0,145879
4,752400	549,461541	178,36	0,145615
4,751333	548,364595	178,41	0,145139
4,750401	546,351842	178,48	0,144265
4,749411	546,351842	178,53	0,144265
4,748393	545,499037	178,58	0,143895
4,747371	544,279459	178,63	0,143366
4,746353	543,851932	178,68	0,143180
4,745356	542,084443	178,76	0,142413
4,744353	540,315830	178,82	0,141646
4,743430	539,584533	178,87	0,141328
4,742403	538,548342	178,92	0,140878
4,741388	537,817045	178,97	0,140561
4,740357	536,109186	179,03	0,139820
4,739414	535,620905	179,11	0,139608
4,738340	535,499397	179,16	0,139555
4,737383	534,768100	179,21	0,139238
4,736316	533,120995	179,26	0,138523
4,735316	532,694592	179,31	0,138338
4,734386	530,255436	179,37	0,137279
4,733401	529,524140	179,43	0,136962
4,732358	529,219245	179,48	0,136830
4,731429	528,122300	179,53	0,136354
4,730333	526,414441	179,58	0,135612
4,729393	524,524320	179,64	0,134792
4,728411	524,097917	179,70	0,134607
4,727423	524,281304	179,75	0,134687
4,726378	522,878339	179,80	0,134078
4,725423	522,574570	179,85	0,133946
4,724441	519,952027	179,92	0,132808
4,723459	519,768640	179,98	0,132728
4,722402	517,635504	180,04	0,131802
4,721392	517,209101	180,09	0,131617
4,720386	516,476680	180,14	0,131299
4,719368	515,745383	180,19	0,130982
4,718390	515,074840	180,25	0,130691
4,717384	513,062086	180,32	0,129817
4,716398	513,062086	180,38	0,129817
4,715376	510,745563	180,43	0,128812
4,714431	511,050457	180,48	0,128944
4,713419	508,733934	180,53	0,127939
4,712349	508,245653	180,59	0,127727
4,711417	508,001512	180,64	0,127621
4,710356	506,294778	180,71	0,126880
4,709403	505,806497	180,76	0,126668
4,708440	504,160516	180,81	0,125954
4,707387	503,550727	180,86	0,125689
4,706418	501,904747	180,93	0,124975
4,705379	500,868556	180,99	0,124525
4,704411	500,929309	181,04	0,124552
4,703397	498,917681	181,10	0,123679
4,702447	498,429399	181,15	0,123467
4,701433	496,904927	181,20	0,122805
4,700362	495,381579	181,28	0,122144
4,699411	494,954052	181,34	0,121958
4,698407	494,283509	181,40	0,121667
4,697387	492,942423	181,45	0,121085
4,696417	492,881669	181,50	0,121059
4,695407	491,173810	181,56	0,120318
4,694421	489,711217	181,62	0,119683
4,693423	489,711217	181,67	0,119683
4,692417	488,430885	181,72	0,119127
4,691387	487,760342	181,77	0,118836
4,690394	486,540764	181,82	0,118307
4,689373	485,016291	181,87	0,117646
4,688405	483,796713	181,94	0,117116
4,687394	482,882029	181,99	0,116719
4,686441	481,967346	182,04	0,116322
4,685353	480,870401	182,09	0,115846
4,684373	479,773456	182,14	0,115370
4,683365	479,041034	182,21	0,115052
4,682425	478,553877	182,28	0,114841
4,681352	476,724510	182,34	0,114047
4,680407	476,785264	182,40	0,114073
4,679439	475,444178	182,45	0,113491
4,678432	474,895143	182,50	0,113253
4,677363	472,883515	182,57	0,112380
4,676381	472,578620	182,62	0,112248
4,675444	470,444358	182,67	0,111321
4,674447	469,529675	182,73	0,110924
4,673387	469,468921	182,78	0,110898
4,672405	467,762187	182,84	0,110157
4,671343	466,786749	182,89	0,109734
4,670370	465,627925	182,95	0,109231
4,669408	464,224960	183,00	0,108622
4,668410	464,530980	183,05	0,108755
4,667387	464,042699	183,10	0,108543
4,666384	461,177140	183,17	0,107299
4,665434	461,116386	183,22	0,107273
4,664383	460,018316	183,27	0,106796
4,663385	459,287019	183,32	0,106479
4,662425	458,433090	183,37	0,106108
4,661419	456,542969	183,44	0,105288
4,660431	455,811672	183,49	0,104971
4,659420	455,080375	183,55	0,104653
4,658437	454,409832	183,60	0,104362
4,657368	453,860797	183,65	0,104124
4,656402	451,909922	183,70	0,103277
4,655399	450,995239	183,77	0,102880
4,654422	450,446204	183,82	0,102642
4,653467	448,251188	183,88	0,101689
4,652410	448,678715	183,93	0,101875
4,651395	447,580645	183,98	0,101398
4,650441	447,459137	184,03	0,101346
4,649405	444,959227	184,08	0,100261
4,648369	443,190614	184,14	0,099493
4,647443	443,557388	184,19	0,099652
4,646434	442,032915	184,24	0,098991
4,645403	440,082040	184,29	0,098144
4,644393	440,325056	184,34	0,098250
4,643453	438,495689	184,41	0,097456
4,642431	436,972341	184,47	0,096794
4,641431	436,849708	184,53	0,096741
4,640456	436,118412	184,58	0,096424
4,639407	435,082220	184,63	0,095974
4,638365	433,496994	184,69	0,095286
4,637445	433,374361	184,74	0,095233
4,636464	432,033275	184,81	0,094651
4,635416	430,936330	184,86	0,094175
4,634426	430,936330	184,91	0,094175
4,633387	429,472611	184,96	0,093540
4,632422	428,192279	185,02	0,092984
4,631406	426,972701	185,07	0,092455
4,630420	425,387475	185,13	0,091767
4,629354	425,387475	185,18	0,091767
4,628411	424,229776	185,23	0,091264
4,627442	422,766057	185,28	0,090629
4,626421	421,302338	185,34	0,089994
4,625396	420,387655	185,41	0,089597
4,624416	419,168077	185,46	0,089067
4,623432	418,436780	185,51	0,088750
4,622401	417,644729	185,58	0,088406
4,621435	416,364397	185,63	0,087851
4,620500	416,669292	185,68	0,087983
4,619495	414,839925	185,75	0,087189
4,618389	413,071312	185,80	0,086421
4,617447	412,949804	185,85	0,086369
4,616451	411,059683	185,92	0,085548
4,615469	410,328386	185,98	0,085231
4,614462	408,803913	186,04	0,084569
4,613420	408,499019	186,09	0,084437
4,612396	408,681281	186,14	0,084516
4,611450	407,157933	186,19	0,083855
4,610427	405,328566	186,26	0,083061
4,609408	405,450074	186,31	0,083114
4,608398	404,535390	186,36	0,082717
4,607457	402,828656	186,42	0,081976
4,606430	401,121922	186,47	0,081235
4,605390	400,572887	186,52	0,080997
4,604442	399,475941	186,60	0,080521
4,603431	398,560133	186,65	0,080124
4,602410	397,523942	186,71	0,079674
4,601431	397,402434	186,76	0,079621
4,600447	395,573067	186,82	0,078827
4,599431	394,414243	186,87	0,078324
4,598435	393,317297	186,92	0,077848
4,597450	393,073157	186,97	0,077742
4,596383	391,366422	187,03	0,077001
4,595444	390,512493	187,08	0,076631
4,594406	389,049899	187,15	0,075996
4,593425	388,988020	187,20	0,075969
4,592374	388,135216	187,25	0,075599
4,591461	387,037145	187,30	0,075123
4,590447	386,366602	187,36	0,074832
4,589424	384,110833	187,41	0,073853
4,588460	382,891255	187,48	0,073323
4,587392	382,586361	187,54	0,073191
4,586387	381,794310	187,59	0,072847
4,585437	380,269837	187,65	0,072186
4,584383	380,269837	187,70	0,072186
4,583438	377,952189	187,76	0,071180
4,582457	378,135576	187,81	0,071259
4,581453	377,220892	187,87	0,070862
4,580452	376,611103	187,92	0,070598
4,579389	375,392650	187,98	0,070069
4,578467	372,953494	188,04	0,069010
4,577435	372,221072	188,09	0,068692
4,576383	371,551654	188,15	0,068402
4,575422	370,758479	188,21	0,068058
4,574403	369,661533	188,26	0,067582
4,573414	368,075182	188,32	0,066893
4,572393	367,465393	188,38	0,066628
4,571455	367,222377	188,43	0,066523
4,570414	365,697905	188,49	0,065861
4,569405	364,905854	188,53	0,065518
4,568422	364,417573	188,59	0,065306
4,567472	362,161803	188,65	0,064327
4,566401	361,125612	188,70	0,063877
4,565413	360,088296	188,77	0,063427
4,564429	358,868718	188,82	0,062897
4,563430	358,564948	188,87	0,062766
4,562434	356,796335	188,93	0,061998
4,561461	356,917843	188,98	0,062051
4,560385	355,881651	189,03	0,061601
4,559377	353,686636	189,09	0,060648
4,558431	353,991530	189,14	0,060781
4,557471	352,284796	189,19	0,060040
4,556428	351,125972	189,25	0,059537
4,555417	350,211289	189,31	0,059140
4,554408	349,967148	189,36	0,059034
4,553453	349,663378	189,41	0,058902
4,552429	348,260414	189,46	0,058293
4,551433	346,858574	189,51	0,057685
4,550369	344,358664	189,58	0,056600
4,549389	344,480172	189,63	0,056653
4,548452	343,322473	189,69	0,056150
4,547399	343,139086	189,74	0,056071
4,546426	341,493106	189,79	0,055356
4,545425	339,785246	189,86	0,054615
4,544393	339,175457	189,91	0,054351
4,543402	338,078512	189,96	0,053875
4,542453	337,652110	190,03	0,053689
4,541483	337,103075	190,08	0,053451
4,540356	335,273708	190,13	0,052657
4,539381	334,359024	190,18	0,052260
4,538437	334,176762	190,23	0,052181
4,537411	332,713044	190,28	0,051546
4,536433	331,371958	190,35	0,050964
4,535494	330,578782	190,40	0,050620
4,534476	330,273888	190,45	0,050487
4,533454	327,835856	190,51	0,049429
4,532520	327,957364	190,56	0,049482
4,531470	326,311384	190,63	0,048768
4,530430	326,494771	190,68	0,048847
4,529436	323,932982	190,74	0,047735
4,528457	323,932982	190,79	0,047735
4,527500	322,591896	190,86	0,047153
4,526478	321,311564	190,92	0,046598
4,525470	320,152740	190,97	0,046095
4,524444	319,848970	191,02	0,045963
4,523406	319,421443	191,07	0,045777
4,522490	316,434377	191,13	0,044481
4,521501	316,800025	191,19	0,044640
4,520432	315,093291	191,25	0,043899
4,519419	315,031412	191,30	0,043872
4,518445	313,263924	191,35	0,043105
4,517423	312,898275	191,40	0,042946
4,516371	311,800205	191,46	0,042470
4,515411	310,459119	191,52	0,041888
4,514430	309,483682	191,57	0,041464
4,513478	307,959209	191,63	0,040803
4,512521	307,349420	191,68	0,040538
4,511476	306,618124	191,73	0,040221
4,510439	304,972143	191,80	0,039506
4,509474	304,239721	191,85	0,039188
4,508404	303,142776	191,91	0,038712
4,507413	302,411479	191,96	0,038395
4,506422	302,349600	192,01	0,038368
4,505422	300,521358	192,06	0,037575
4,504485	298,813499	192,12	0,036833
4,503487	297,960694	192,17	0,036463
4,502439	297,228273	192,23	0,036146
4,501430	297,411659	192,28	0,036225
4,500446	295,460784	192,34	0,035378
4,499439	294,546101	192,40	0,034981
4,498423	293,936312	192,45	0,034717
4,497409	293,692171	192,50	0,034611
4,496455	291,192261	192,57	0,033526
4,495445	290,400211	192,62	0,033182
4,494377	291,010000	192,67	0,033447
4,493520	289,424773	192,72	0,032759
4,492445	287,534652	192,79	0,031938
4,491440	286,924863	192,85	0,031674
4,490418	286,315074	192,90	0,031409
4,489448	284,729848	192,95	0,030721
4,488450	284,059305	193,00	0,030430
4,487446	282,351445	193,06	0,029689
4,486413	282,229938	193,13	0,029636
4,485467	281,010360	193,19	0,029107
4,484446	280,949606	193,24	0,029081
4,483450	279,669274	193,29	0,028525
4,482411	278,998731	193,34	0,028234
4,481402	277,535012	193,39	0,027599
4,480424	276,315434	193,46	0,027069
4,479510	275,401876	193,51	0,026673
4,478382	274,730208	193,57	0,026381
4,477405	272,962720	193,62	0,025614
4,476420	272,292177	193,67	0,025323
4,475416	270,584317	193,73	0,024582
4,474433	270,402056	193,79	0,024503
4,473425	269,426618	193,84	0,024080
4,472440	269,243232	193,89	0,024000
4,471441	267,962900	193,95	0,023444
4,470504	266,438427	194,00	0,022783
4,469420	264,426798	194,06	0,021910
4,468415	263,756255	194,12	0,021619
4,467478	263,085712	194,18	0,021328
4,466430	262,109150	194,23	0,020904
4,465411	260,158275	194,28	0,020057
4,464458	259,487732	194,34	0,019766
4,463400	259,122084	194,41	0,019607
4,462435	257,659490	194,46	0,018973
4,461473	257,720244	194,51	0,018999
4,460377	256,927068	194,56	0,018655
4,459467	255,708615	194,61	0,018126
4,458475	254,732053	194,66	0,017702
4,457390	253,086073	194,74	0,016988
4,456442	252,659670	194,80	0,016803
4,455470	251,928373	194,85	0,016485
4,454443	249,671479	194,90	0,015506
4,453431	249,167447	194,95	0,015287
4,452434	248,818674	195,00	0,015136
4,451441	246,989307	195,06	0,014342
4,450462	245,769729	195,12	0,013813
4,449475	246,379518	195,17	0,014077
4,448413	244,550151	195,22	0,013283
4,447438	243,940362	195,27	0,013019
4,446403	241,928733	195,34	0,012146
4,445450	241,807226	195,38	0,012093
4,444436	240,831788	195,44	0,011669
4,443438	239,856351	195,49	0,011246
4,442409	239,368070	195,55	0,011034
4,441441	237,600581	195,60	0,010267
4,440473	236,258371	195,66	0,009685
4,439401	235,100671	195,71	0,009182
4,438423	234,733898	195,76	0,009023
4,437394	233,576199	195,81	0,008521
4,436438	232,417375	195,86	0,008018
4,435439	230,953656	195,91	0,007382
4,434514	230,038972	195,98	0,006985
4,433524	230,405746	196,03	0,007145
4,432453	228,637133	196,10	0,006377
4,431424	228,697887	196,15	0,006403
4,430478	227,966590	196,21	0,006086
4,429441	226,991152	196,26	0,005663
4,428425	225,040278	196,31	0,004816
4,427473	223,820700	196,38	0,004287
4,426417	223,820700	196,43	0,004287
4,425416	222,784508	196,49	0,003837
4,424416	221,869825	196,54	0,003440
4,423420	220,771754	196,59	0,002963
4,422436	219,674809	196,64	0,002487
4,421468	217,235653	196,71	0,001429
4,420477	217,358286	196,76	0,001482
4,419473	215,894567	196,81	0,000847
4,418460	216,138708	196,86	0,000953
4,417455	214,186708	196,91	0,000105
4,416498	212,297712	196,96	-0,000714
4,415492	211,687923	197,04	-0,000979
4,414474	212,663360	197,09	-0,000556
4,413485	211,565290	197,15	-0,001032
4,412461	210,651732	197,20	-0,001429
4,411467	208,578224	197,25	-0,002329
4,410473	207,358646	197,31	-0,002858
4,409439	206,565470	197,37	-0,003202
4,408453	206,322455	197,42	-0,003308
4,407523	205,102877	197,47	-0,003837
4,406522	204,676474	197,53	-0,004022
4,405405	203,273510	197,58	-0,004631
4,404472	201,140373	197,64	-0,005557
4,403467	200,530584	197,70	-0,005821
4,402441	200,347197	197,75	-0,005901
4,401463	198,701217	197,80	-0,006615
4,400533	198,396322	197,85	-0,006748
4,399528	196,688463	197,90	-0,007489
4,398425	195,957166	197,97	-0,007806
4,397466	195,652272	198,02	-0,007938
4,396462	194,067045	198,07	-0,008626
4,395498	193,640643	198,12	-0,008812
4,394416	192,543698	198,17	-0,009288
4,393511	191,262241	198,22	-0,009844
4,392563	190,226049	198,28	-0,010293
4,391538	190,226049	198,34	-0,010293
4,390506	188,580069	198,39	-0,011008
4,389479	187,847647	198,44	-0,011326
4,388476	186,750702	198,49	-0,011802
4,387487	185,165476	198,54	-0,012490
4,386465	183,336109	198,60	-0,013284
4,385460	183,945898	198,66	-0,013019
4,384535	181,629374	198,71	-0,014024
4,383522	180,836199	198,77	-0,014369
4,382533	179,800007	198,82	-0,014818
4,381451	180,166781	198,87	-0,014659
4,380452	178,032519	198,94	-0,015585
4,379441	177,057082	198,99	-0,016009
4,378491	176,447293	199,05	-0,016273
4,377528	175,409976	199,10	-0,016724
4,376559	174,129644	199,15	-0,017279
4,375520	173,337594	199,20	-0,017623
4,374443	172,057262	199,27	-0,018179
4,373453	170,898437	199,32	-0,018682
4,372470	171,021070	199,37	-0,018628
4,371446	169,618106	199,42	-0,019237
4,370474	169,252457	199,48	-0,019396
4,369448	168,093633	199,54	-0,019899
4,368456	165,837864	199,60	-0,020878
4,367480	166,082004	199,65	-0,020772
4,366476	164,923180	199,70	-0,021275
4,365470	163,704727	199,75	-0,021804
4,364446	161,996868	199,80	-0,022545
4,363490	160,472395	199,87	-0,023207
4,362506	159,924485	199,92	-0,023444
4,361484	159,496958	199,98	-0,023630
4,360432	158,643028	200,03	-0,024000
4,359478	157,850977	200,08	-0,024344
4,358421	155,839349	200,13	-0,025217
4,357422	154,802032	200,20	-0,025667
4,356504	153,887349	200,25	-0,026064
4,355491	153,583579	200,30	-0,026196
4,354448	153,217931	200,35	-0,026355
4,353475	150,718021	200,40	-0,027440
4,352458	149,498443	200,47	-0,027969
4,351494	148,278865	200,54	-0,028499
4,350484	148,949408	200,59	-0,028208
4,349463	146,937779	200,64	-0,029081
4,348472	146,388744	200,69	-0,029319
4,347500	145,169166	200,75	-0,029848
4,346455	143,523185	200,81	-0,030562
4,345471	142,669256	200,87	-0,030933
4,344414	141,816451	200,92	-0,031303
4,343439	142,303607	200,97	-0,031092
4,342463	140,047838	201,02	-0,032071
4,341451	138,950893	201,07	-0,032547
4,340425	137,303787	201,12	-0,033262
4,339515	137,182280	201,19	-0,033314
4,338491	136,755877	201,24	-0,033500
4,337464	134,865756	201,29	-0,034320
4,336445	134,926510	201,34	-0,034293
4,335457	133,646178	201,40	-0,034849
4,334491	131,756057	201,45	-0,035669
4,333439	131,695303	201,51	-0,035696
4,332514	130,475725	201,56	-0,036225
4,331509	129,072761	201,61	-0,036834
4,330517	127,610167	201,66	-0,037469
4,329425	128,097323	201,71	-0,037257
4,328551	126,207202	201,77	-0,038078
4,327473	125,292519	201,83	-0,038475
4,326490	125,292519	201,88	-0,038475
4,325508	122,915242	201,94	-0,039506
4,324525	122,549593	201,99	-0,039665
4,323492	120,903613	202,05	-0,040379
4,322515	121,025121	202,10	-0,040327
4,321455	118,890859	202,17	-0,041253
4,320515	119,013492	202,22	-0,041200
4,319503	117,793914	202,27	-0,041729
4,318466	116,392074	202,33	-0,042337
4,317483	116,086055	202,38	-0,042470
4,316507	114,440074	202,45	-0,043185
4,315500	113,587270	202,50	-0,043555
4,314504	113,648023	202,55	-0,043528
4,313467	112,733340	202,60	-0,043925
4,312472	110,659832	202,65	-0,044825
4,311461	109,318746	202,73	-0,045407
4,310454	108,282555	202,79	-0,045857
4,309538	108,770836	202,84	-0,045645
4,308515	107,246364	202,89	-0,046307
4,307477	105,416997	202,94	-0,047101
4,306483	105,477751	202,99	-0,047074
4,305479	102,917087	203,06	-0,048186
4,304461	102,307298	203,12	-0,048450
4,303471	101,880895	203,18	-0,048635
4,302446	101,515247	203,23	-0,048794
4,301502	100,295669	203,28	-0,049323
4,300461	98,405548	203,33	-0,050144
4,299483	97,125216	203,41	-0,050699
4,298477	97,490864	203,46	-0,050541
4,297507	96,697689	203,51	-0,050885
4,296468	94,869447	203,56	-0,051678
4,295511	94,686060	203,61	-0,051758
4,294441	93,405728	203,66	-0,052313
4,293481	91,210712	203,73	-0,053266
4,292506	90,296029	203,79	-0,053663
4,291501	90,600923	203,84	-0,053531
4,290497	90,053013	203,89	-0,053769
4,289438	87,125576	203,96	-0,055039
4,288491	86,150139	204,02	-0,055462
4,287469	85,418842	204,08	-0,055780
4,286440	84,381525	204,13	-0,056230
4,285465	84,564912	204,18	-0,056150
4,284537	82,918932	204,23	-0,056865
4,283486	81,943494	204,28	-0,057288
4,282483	80,297514	204,36	-0,058002
4,281466	79,931866	204,41	-0,058161
4,280510	78,712288	204,46	-0,058690
4,279458	77,797604	204,51	-0,059087
4,278477	77,492710	204,56	-0,059220
4,277559	76,822167	204,61	-0,059511
4,276533	74,992800	204,68	-0,060305
4,275454	74,200749	204,73	-0,060648
4,274495	72,737030	204,78	-0,061284
4,273477	72,127241	204,83	-0,061548
4,272493	71,517452	204,88	-0,061813
4,271469	69,688085	204,95	-0,062607
4,270485	68,956788	205,00	-0,062924
4,269463	67,676456	205,06	-0,063480
4,268457	68,102859	205,11	-0,063295
4,267448	65,602949	205,17	-0,064380
4,266466	65,602949	205,22	-0,064380
4,265461	64,566757	205,28	-0,064830
4,264455	62,920777	205,34	-0,065544
4,263456	61,701199	205,41	-0,066073
4,262457	60,420867	205,47	-0,066629
4,261531	61,152164	205,52	-0,066312
4,260521	58,835640	205,57	-0,067317
4,259489	57,311168	205,64	-0,067979
4,258484	57,860203	205,69	-0,067740
4,257513	55,848574	205,76	-0,068613
4,256547	54,568242	205,81	-0,069169
4,255509	54,811258	205,86	-0,069063
4,254497	53,775067	205,91	-0,069513
4,253463	51,945700	205,98	-0,070307
4,252482	51,458543	206,03	-0,070519
4,251500	49,873317	206,11	-0,071207
4,250522	49,507668	206,16	-0,071365
4,249484	48,348844	206,21	-0,071868
4,248517	47,068512	206,26	-0,072424
4,247503	46,032321	206,32	-0,072874
4,246516	45,056884	206,39	-0,073297
4,245520	44,507849	206,44	-0,073535
4,244445	43,958813	206,50	-0,073773
4,243532	42,191325	206,55	-0,074541
4,242504	40,971747	206,60	-0,075070
4,241478	40,057064	206,65	-0,075467
4,240526	39,325767	206,70	-0,075784
4,239515	37,678661	206,77	-0,076499
4,238451	36,703224	206,82	-0,076922
4,237435	36,703224	206,87	-0,076922
4,236498	34,630841	206,93	-0,077822
4,235509	34,447455	206,98	-0,077901
4,234540	33,960298	207,03	-0,078113
4,233503	32,619213	207,08	-0,078695
4,232478	31,581896	207,14	-0,079145
4,231488	30,850599	207,19	-0,079462
4,230485	30,180057	207,24	-0,079753
4,229497	27,924287	207,31	-0,080732
4,228531	26,888096	207,36	-0,081182
4,227523	25,545885	207,42	-0,081765
4,226469	26,034166	207,47	-0,081553
4,225531	24,753834	207,53	-0,082108
4,224471	22,558819	207,59	-0,083061
4,223469	21,826397	207,64	-0,083379
4,222547	21,034346	207,69	-0,083723
4,221506	19,509874	207,75	-0,084384
4,220526	18,351049	207,80	-0,084887
4,219515	17,924647	207,85	-0,085072
4,218437	17,558999	207,91	-0,085231
4,217510	15,180597	207,96	-0,086263
4,216526	15,119843	208,01	-0,086290
4,215559	13,352355	208,08	-0,087057
4,214472	14,083651	208,13	-0,086739
4,213461	12,681812	208,18	-0,087348
4,212484	10,791691	208,24	-0,088168
4,211535	9,816253	208,29	-0,088591
4,210526	8,839691	208,34	-0,089015
4,209579	7,742746	208,40	-0,089491
4,208524	7,193710	208,46	-0,089729
4,207518	5,974132	208,51	-0,090259
4,206542	5,608484	208,56	-0,090417
4,205552	4,693800	208,62	-0,090814
4,204569	4,084011	208,66	-0,091079
4,203451	1,401840	208,74	-0,092243
4,202557	0,608664	208,80	-0,092587
4,201581	-0,244141	208,85	-0,092958
4,200536	-0,060754	208,90	-0,092878
4,199511	-1,098070	208,96	-0,093328
4,198512	-2,927437	209,00	-0,094122
4,197566	-4,206644	209,07	-0,094677
4,196541	-4,329277	209,13	-0,094730
4,195553	-0,853930	209,18	-0,093222
4,194536	-0,488281	209,23	-0,093063
4,193495	-0,609789	209,28	-0,093116
4,192472	-0,609789	209,35	-0,093116
4,191510	-1,402965	209,40	-0,093460
4,190534	-0,488281	209,45	-0,093063
4,189529	-0,975437	209,50	-0,093275
4,188538	-0,793176	209,56	-0,093196
4,187517	-0,732422	209,61	-0,093169
4,186511	-1,098070	209,66	-0,093328
4,185561	-0,914684	209,73	-0,093249
4,184540	-0,975437	209,79	-0,093275
4,183500	-0,366773	209,85	-0,093011
4,182530	-0,975437	209,91	-0,093275
4,181501	-0,609789	209,97	-0,093116
4,180428	-1,524473	210,02	-0,093513
4,179489	-0,914684	210,16	-0,093249
4,178494	-0,671668	210,22	-0,093143
4,177491	-0,549035	210,28	-0,093090
4,176488	-0,366773	210,32	-0,093011
4,175521	-0,853930	210,40	-0,093222
4,174499	-0,914684	210,45	-0,093249
4,173540	-0,671668	210,50	-0,093143
4,172480	-0,793176	210,55	-0,093196
4,171534	-0,671668	210,60	-0,093143
4,170517	-0,304895	210,67	-0,092984
4,169514	-1,463719	210,72	-0,093487
4,168485	-0,793176	210,77	-0,093196
4,167561	-0,732422	210,82	-0,093169
4,166466	-0,671668	210,88	-0,093143
4,165516	-0,732422	210,96	-0,093169
4,164539	-0,793176	211,03	-0,093196
4,163535	-0,671668	211,10	-0,093143
4,162587	-0,671668	211,17	-0,093143
4,161490	-0,975437	211,24	-0,093275
4,160525	-0,671668	211,29	-0,093143
4,159501	-0,427527	211,34	-0,093037
4,158566	-0,732422	211,40	-0,093169
4,157525	-1,037316	211,45	-0,093302
4,156558	-0,060754	211,50	-0,092878
4,155547	-0,549035	211,56	-0,093090
4,154561	-0,244141	211,61	-0,092958
4,153523	-0,609789	211,67	-0,093116
4,152561	-0,671668	211,72	-0,093143
4,151547	-0,732422	211,78	-0,093169
4,150569	-0,732422	211,83	-0,093169
4,149520	-0,914684	211,90	-0,093249
4,148547	-1,158824	211,96	-0,093354
4,147506	-0,914684	212,01	-0,093249
4,146555	-0,793176	212,08	-0,093196
4,145482	-0,183387	212,19	-0,092931
4,144533	-0,427527	212,25	-0,093037
4,143570	-1,158824	212,31	-0,093354
4,142559	-0,427527	212,37	-0,093037
4,141515	-1,037316	212,43	-0,093302
4,140534	-0,732422	212,49	-0,093169
4,139469	-0,732422	212,58	-0,093169
4,138529	-0,793176	212,65	-0,093196
4,137489	-1,037316	212,72	-0,093302
4,136578	-0,060754	212,78	-0,092878
4,135517	-0,671668	212,83	-0,093143
4,134611	-0,549035	212,90	-0,093090
4,133577	-0,732422	212,94	-0,093169
4,132542	-0,671668	213,01	-0,093143
4,131525	-0,732422	213,07	-0,093169
4,130575	-0,914684	213,13	-0,093249
4,129514	-0,060754	213,20	-0,092878
4,128511	-0,427527	213,29	-0,093037
4,127507	-0,914684	213,34	-0,093249
4,126537	-0,732422	213,40	-0,093169
4,125527	-0,609789	213,46	-0,093116
4,124504	-0,488281	213,51	-0,093063
4,123499	-0,366773	213,57	-0,093011
4,122514	0,182262	213,62	-0,092772
4,121502	-0,671668	213,67	-0,093143
4,120593	-0,793176	213,72	-0,093196
4,119545	-0,732422	213,79	-0,093169
4,118519	-0,793176	213,85	-0,093196
4,117577	-0,244141	213,90	-0,092958
4,116491	-0,671668	213,95	-0,093143
4,115547	-0,732422	214,00	-0,093169
4,114515	-0,183387	214,05	-0,092931
4,113535	-0,975437	214,10	-0,093275
4,112511	-0,975437	214,15	-0,093275
4,111516	0,243016	214,20	-0,092746
4,110493	-0,732422	214,27	-0,093169
4,109586	-0,609789	214,32	-0,093116
4,108523	-0,609789	214,38	-0,093116
4,107549	-0,366773	214,43	-0,093011
4,106540	-0,122633	214,48	-0,092905
4,105537	-0,366773	214,53	-0,093011
4,104529	-0,060754	214,58	-0,092878
4,103567	0,000000	214,63	-0,092852
4,102520	-0,732422	214,68	-0,093169
4,101535	-0,549035	214,73	-0,093090
