Quasi static measurement routine
Tip parameters (shape,radius, material...) 
22.08.2022

Piezo position[nm]	MEMS displ.[nm]	Time[ms]	Cap [pf]	Temp [°C]	Rh [%]
eoh
2,589985	-0,427538	0,214	-0,135900	22,370000	52,345000
2,591689	0,149522	0,276	-0,135659	22,370000	52,345000
2,593327	1,566472	0,326	-0,135067	22,370000	52,345000
2,594941	4,193612	0,376	-0,133969	22,370000	52,345000
2,596705	4,969255	0,426	-0,133645	22,370000	52,345000
2,598304	7,342909	0,476	-0,132652	22,370000	52,345000
2,599977	9,352105	0,526	-0,131812	22,370000	52,345000
2,601663	11,347282	0,576	-0,130979	22,370000	52,345000
2,603347	12,865860	0,626	-0,130344	22,370000	52,345000
2,604970	14,639092	0,681	-0,129603	22,370000	52,345000
2,606692	15,484824	0,741	-0,129249	22,370000	52,345000
2,608315	17,755682	0,791	-0,128300	22,370000	52,345000
2,609993	17,937911	0,861	-0,128224	22,370000	52,345000
2,611682	20,969227	0,912	-0,126957	22,380000	52,320000
2,613323	22,781007	0,963	-0,126199	22,380000	52,320000
2,614969	23,112758	1,013	-0,126061	22,380000	52,320000
2,616633	25,661633	1,063	-0,124995	22,380000	52,320000
2,618327	26,864814	1,113	-0,124492	22,380000	52,320000
2,620020	27,378794	1,163	-0,124277	22,380000	52,320000
2,621725	28,865832	1,214	-0,123656	22,380000	52,320000
2,623282	30,639064	1,265	-0,122915	22,380000	52,320000
2,625023	33,083975	1,316	-0,121893	22,380000	52,320000
2,626640	33,843264	1,366	-0,121575	22,380000	52,320000
2,628373	35,774194	1,416	-0,120768	22,380000	52,320000
2,629957	36,897942	1,466	-0,120298	22,380000	52,320000
2,631640	38,615104	1,517	-0,119581	22,380000	52,320000
2,633303	40,095133	1,567	-0,118962	22,380000	52,320000
2,634978	42,120683	1,619	-0,118115	22,380000	52,320000
2,636646	44,928884	1,669	-0,116941	22,380000	52,320000
2,638339	44,928884	1,719	-0,116941	22,380000	52,320000
2,640039	46,685762	1,769	-0,116207	22,380000	52,320000
2,641637	49,939023	1,819	-0,114847	22,380000	52,320000
2,643334	51,434239	1,870	-0,114222	22,380000	52,320000
2,644994	52,755401	1,920	-0,113670	22,380000	52,320000
2,646635	54,448032	1,971	-0,112962	22,380000	52,320000
2,648414	54,726049	2,021	-0,112846	22,380000	52,320000
2,650008	57,376551	2,071	-0,111738	22,380000	52,320000
2,651701	59,347198	2,121	-0,110915	22,380000	52,320000
2,653326	60,993103	2,171	-0,110227	22,380000	52,320000
2,655035	60,819051	2,221	-0,110299	22,380000	52,320000
2,656747	62,473133	2,271	-0,109608	22,380000	52,320000
2,658324	64,150578	2,321	-0,108907	22,380000	52,320000
2,659983	66,991487	2,371	-0,107719	22,380000	52,320000
2,661669	68,351198	2,422	-0,107151	22,380000	52,320000
2,663285	69,910661	2,473	-0,106499	22,380000	52,320000
2,664974	70,986515	2,523	-0,106049	22,380000	52,320000
2,666633	73,535390	2,573	-0,104984	22,380000	52,320000
2,668331	73,756168	2,624	-0,104892	22,380000	52,320000
2,669998	75,615842	2,675	-0,104114	22,380000	52,320000
2,671663	78,607441	2,725	-0,102864	22,380000	52,320000
2,673300	78,362132	2,776	-0,102966	22,380000	52,320000
2,675025	81,653942	2,827	-0,101590	22,380000	52,320000
2,676655	82,176099	2,878	-0,101372	22,380000	52,320000
2,678308	84,953929	2,928	-0,100211	22,380000	52,320000
2,679976	84,953929	2,978	-0,100211	22,380000	52,320000
2,681678	87,011018	3,028	-0,099351	22,380000	52,320000
2,683334	88,284287	3,080	-0,098819	22,380000	52,320000
2,684963	91,173090	3,130	-0,097611	22,380000	52,320000
2,686669	91,513018	3,180	-0,097469	22,380000	52,320000
2,688336	94,678669	3,230	-0,096146	22,380000	52,320000
2,689977	94,504616	3,280	-0,096219	22,380000	52,320000
2,691689	97,274269	3,330	-0,095061	22,380000	52,320000
2,693334	97,551118	3,381	-0,094945	22,380000	52,320000
2,694970	100,834751	3,432	-0,093573	22,380000	52,320000
2,696645	100,945724	3,482	-0,093526	22,380000	52,320000
2,698328	102,472479	3,532	-0,092888	22,380000	52,320000
2,700006	103,920969	3,582	-0,092283	22,380000	52,320000
2,701626	105,961704	3,632	-0,091430	22,380000	52,320000
2,703332	107,418371	3,682	-0,090821	22,380000	52,320000
2,705010	109,040913	3,732	-0,090143	22,380000	52,320000
2,706642	110,416978	3,782	-0,089567	22,380000	52,320000
2,708364	112,379448	3,833	-0,088747	22,380000	52,320000
2,710007	113,796398	3,883	-0,088155	22,380000	52,320000
2,711663	115,489029	3,933	-0,087447	22,380000	52,320000
2,713331	118,780839	3,983	-0,086071	22,380000	52,320000
2,714967	119,113758	4,033	-0,085932	22,380000	52,320000
2,716630	121,661465	4,083	-0,084867	22,380000	52,320000
2,718257	123,347086	4,133	-0,084163	22,380000	52,320000
2,719974	125,001168	4,184	-0,083471	22,380000	52,320000
2,721661	125,103964	4,234	-0,083428	22,380000	52,320000
2,723286	128,253261	4,284	-0,082112	22,380000	52,320000
2,725011	128,585012	4,334	-0,081973	22,380000	52,320000
2,726593	131,528717	4,385	-0,080743	22,380000	52,320000
2,728277	131,371019	4,436	-0,080809	22,380000	52,320000
2,729984	134,860244	4,486	-0,079350	22,380000	52,320000
2,731628	135,849656	4,537	-0,078937	22,380000	52,320000
2,733347	136,237478	4,587	-0,078774	22,380000	52,320000
2,735027	138,065612	4,638	-0,078010	22,380000	52,320000
2,736623	139,338881	4,688	-0,077478	22,380000	52,320000
2,738270	140,992963	4,738	-0,076787	22,380000	52,320000
2,739950	142,544249	4,788	-0,076138	22,380000	52,320000
2,741584	144,229871	4,839	-0,075434	22,380000	52,320000
2,743329	146,864020	4,889	-0,074333	22,380000	52,320000
2,745020	147,299735	4,939	-0,074150	22,380000	52,305000
2,746638	148,581181	4,989	-0,073615	22,380000	52,305000
2,748312	152,070406	5,039	-0,072156	22,380000	52,305000
2,749954	153,337835	5,089	-0,071626	22,380000	52,305000
2,751596	153,757196	5,139	-0,071451	22,380000	52,305000
2,753319	156,818883	5,189	-0,070171	22,380000	52,305000
2,754970	156,921679	5,239	-0,070128	22,380000	52,305000
2,756623	158,781353	5,289	-0,069351	22,380000	52,305000
2,758294	160,047613	5,340	-0,068822	22,380000	52,305000
2,759945	162,903708	5,390	-0,067628	22,380000	52,305000
2,761614	163,394326	5,440	-0,067423	22,380000	52,305000
2,763270	166,037820	5,490	-0,066318	22,380000	52,305000
2,765037	166,401110	5,540	-0,066166	22,380000	52,305000
2,766633	168,965171	5,591	-0,065094	22,380000	52,305000
2,768300	169,566761	5,641	-0,064843	22,380000	52,305000
2,769998	172,628448	5,692	-0,063563	22,380000	52,305000
2,771667	172,558360	5,742	-0,063592	22,380000	52,305000
2,773351	175,572153	5,792	-0,062333	22,380000	52,305000
2,774957	175,785923	5,842	-0,062243	22,380000	52,305000
2,776636	178,073135	5,893	-0,061287	22,380000	52,305000
2,778291	178,872140	5,943	-0,060953	22,380000	52,305000
2,780007	181,436201	5,993	-0,059881	22,380000	52,305000
2,781675	182,432622	6,043	-0,059465	22,380000	52,305000
2,783277	184,538773	6,093	-0,058584	22,380000	52,305000
2,785008	185,480291	6,143	-0,058191	22,380000	52,305000
2,786622	187,822406	6,194	-0,057212	22,380000	52,305000
2,788283	190,116627	6,244	-0,056253	22,380000	52,305000
2,789907	190,844376	6,294	-0,055949	22,380000	52,305000
2,791600	191,810425	6,344	-0,055545	22,380000	52,305000
2,793347	193,796258	6,394	-0,054715	22,380000	52,305000
2,794999	194,928183	6,444	-0,054242	22,380000	52,305000
2,796617	197,238758	6,494	-0,053276	22,380000	52,305000
2,798295	198,203639	6,544	-0,052873	22,380000	52,305000
2,800010	199,983880	6,595	-0,052128	22,380000	52,305000
2,801676	202,531586	6,646	-0,051063	22,380000	52,305000
2,803304	203,292044	6,696	-0,050746	22,380000	52,305000
2,804938	206,330368	6,746	-0,049476	22,380000	52,305000
2,806589	207,659708	6,797	-0,048920	22,380000	52,305000
2,808321	208,380448	6,848	-0,048619	22,380000	52,305000
2,809915	209,574284	6,898	-0,048120	22,380000	52,305000
2,811690	212,613777	6,948	-0,046849	22,380000	52,320000
2,813278	212,779652	6,998	-0,046780	22,380000	52,320000
2,814963	215,335536	7,048	-0,045711	22,380000	52,320000
2,816670	215,675464	7,099	-0,045569	22,380000	52,320000
2,818299	218,730142	7,149	-0,044292	22,380000	52,320000
2,819977	218,856300	7,201	-0,044240	22,380000	52,320000
2,821621	221,934341	7,251	-0,042953	22,380000	52,320000
2,823306	221,745103	7,302	-0,043032	22,380000	52,320000
2,824986	224,420137	7,352	-0,041914	22,380000	52,320000
2,826583	225,131532	7,402	-0,041617	22,380000	52,320000
2,828334	227,672230	7,452	-0,040555	22,380000	52,320000
2,829918	228,534315	7,503	-0,040194	22,380000	52,320000
2,831650	230,283016	7,553	-0,039463	22,380000	52,320000
2,833208	232,268849	7,604	-0,038633	22,380000	52,320000
2,835013	233,662436	7,655	-0,038051	22,380000	52,320000
2,836632	234,849264	7,705	-0,037555	22,380000	52,320000
2,838259	236,707770	7,755	-0,036778	22,380000	52,320000
2,839973	239,485599	7,805	-0,035617	22,380000	52,320000
2,841578	240,072004	7,855	-0,035372	22,380000	52,320000
2,843296	241,045062	7,905	-0,034965	22,380000	52,320000
2,844961	242,872028	7,955	-0,034201	22,380000	52,320000
2,846624	244,550641	8,005	-0,033500	22,380000	52,320000
2,848287	246,172015	8,055	-0,032822	22,380000	52,320000
2,849984	247,176613	8,105	-0,032402	22,380000	52,320000
2,851645	248,933491	8,155	-0,031667	22,380000	52,320000
2,853286	250,540847	8,206	-0,030996	22,380000	52,320000
2,854948	252,392344	8,257	-0,030222	22,380000	52,320000
2,856658	255,311519	8,307	-0,029001	22,380000	52,320000
2,858285	255,652615	8,358	-0,028859	22,380000	52,320000
2,859942	257,028680	8,409	-0,028284	22,380000	52,320000
2,861614	260,075181	8,459	-0,027010	22,380000	52,320000
2,863242	260,597339	8,509	-0,026792	22,380000	52,320000
2,865002	263,050426	8,560	-0,025767	22,380000	52,320000
2,866674	264,285147	8,610	-0,025250	22,380000	52,320000
2,868251	266,849208	8,660	-0,024179	22,380000	52,320000
2,869975	266,413492	8,710	-0,024361	22,380000	52,320000
2,871619	269,650400	8,760	-0,023008	22,380000	52,320000
2,873275	270,678360	8,810	-0,022578	22,380000	52,320000
2,874950	271,327845	8,860	-0,022307	22,380000	52,320000
2,876625	274,357992	8,910	-0,021040	22,380000	52,345000
2,878322	273,994701	8,961	-0,021192	22,380000	52,345000
2,879961	276,961769	9,011	-0,019952	22,380000	52,345000
2,881650	277,429024	9,062	-0,019756	22,380000	52,345000
2,883305	279,359954	9,112	-0,018949	22,380000	52,345000
2,884943	280,578321	9,162	-0,018440	22,380000	52,345000
2,886597	282,706667	9,212	-0,017550	22,380000	52,345000
2,888305	283,711265	9,262	-0,017130	22,380000	52,345000
2,889937	285,927220	9,312	-0,016204	22,380000	52,345000
2,891619	286,805659	9,362	-0,015837	22,380000	52,345000
2,893300	288,522821	9,412	-0,015119	22,380000	52,345000
2,894946	291,552968	9,463	-0,013853	22,380000	52,345000
2,896651	291,434986	9,513	-0,013902	22,380000	52,345000
2,898282	294,844778	9,563	-0,012477	22,380000	52,345000
2,899917	295,303856	9,613	-0,012285	22,380000	52,345000
2,901654	298,017438	9,664	-0,011150	22,380000	52,345000
2,903258	298,516232	9,714	-0,010942	22,380000	52,345000
2,905000	301,317425	9,764	-0,009771	22,380000	52,345000
2,906646	303,067294	9,815	-0,009040	22,380000	52,345000
2,908245	304,325378	9,866	-0,008514	22,380000	52,345000
2,909908	304,363926	9,917	-0,008498	22,380000	52,345000
2,911637	307,577471	9,967	-0,007154	22,380000	52,345000
2,913298	307,821611	10,017	-0,007052	22,380000	52,345000
2,915006	310,385672	10,067	-0,005980	22,380000	52,345000
2,916640	310,924183	10,117	-0,005755	22,380000	52,345000
2,918345	313,970684	10,167	-0,004482	22,380000	52,345000
2,920006	313,677482	10,217	-0,004604	22,380000	52,345000
2,921587	316,304622	10,267	-0,003506	22,380000	52,345000
2,923252	317,111805	10,317	-0,003169	22,380000	52,345000
2,924932	319,541530	10,368	-0,002153	22,380000	52,345000
2,926591	320,277456	10,419	-0,001846	22,380000	52,345000
2,928288	323,307603	10,469	-0,000579	22,380000	52,345000
2,930004	323,885831	10,519	-0,000337	22,380000	52,345000
2,931679	326,710386	10,569	0,000843	22,380000	52,345000
2,933233	326,647307	10,619	0,000817	22,380000	52,345000
2,934969	329,266270	10,670	0,001912	22,380000	52,345000
2,936603	329,701985	10,721	0,002094	22,380000	52,345000
2,938306	332,083816	10,771	0,003089	22,380000	52,345000
2,939949	332,771849	10,822	0,003377	22,380000	52,345000
2,941592	334,687593	10,872	0,004178	22,380000	52,345000
2,943286	336,230702	10,922	0,004823	22,380000	52,345000
2,944930	338,311154	10,972	0,005692	22,380000	52,345000
2,946637	339,315752	11,023	0,006112	22,380000	52,345000
2,948336	340,898578	11,073	0,006774	22,380000	52,345000
2,949973	343,391382	11,124	0,007816	22,380000	52,345000
2,951593	344,309538	11,174	0,008200	22,380000	52,345000
2,953251	347,102553	11,224	0,009367	22,380000	52,345000
2,954967	347,347862	11,275	0,009470	22,380000	52,345000
2,956678	350,101161	11,325	0,010621	22,380000	52,345000
2,958274	350,235496	11,375	0,010677	22,380000	52,345000
2,959992	353,440864	11,425	0,012017	22,380000	52,345000
2,961625	355,141672	11,476	0,012728	22,380000	52,345000
2,963298	355,957031	11,527	0,013068	22,380000	52,345000
2,964922	357,326088	11,577	0,013641	22,380000	52,345000
2,966617	359,651848	11,627	0,014613	22,380000	52,345000
2,968252	359,913511	11,677	0,014722	22,380000	52,345000
2,969936	363,062808	11,727	0,016039	22,380000	52,345000
2,971542	363,007906	11,778	0,016016	22,380000	52,345000
2,973279	365,776391	11,829	0,017173	22,380000	52,345000
2,975017	367,952630	11,879	0,018083	22,380000	52,345000
2,976622	368,989935	11,930	0,018516	22,380000	52,345000
2,978258	369,440836	11,981	0,018705	22,380000	52,345000
2,979949	372,020083	12,031	0,019783	22,380000	52,345000
2,981619	374,227861	12,081	0,020706	22,380000	52,345000
2,983282	374,813098	12,131	0,020950	22,380000	52,345000
2,984929	375,676351	12,182	0,021311	22,380000	52,345000
2,986637	378,263775	12,232	0,022393	22,380000	52,345000
2,988264	378,920268	12,282	0,022667	22,380000	52,345000
2,989928	380,511270	12,332	0,023332	22,380000	52,345000
2,991638	382,125635	12,382	0,024007	22,380000	52,345000
2,993298	383,866160	12,432	0,024734	22,380000	52,345000
2,994967	383,866160	12,482	0,024734	22,380000	52,345000
2,996605	387,015457	12,533	0,026051	22,380000	52,345000
2,998301	390,093498	12,584	0,027337	22,380000	52,345000
2,999940	390,204471	12,634	0,027384	22,380000	52,345000
3,001630	393,029026	12,684	0,028564	22,380000	52,345000
3,003244	394,731001	12,735	0,029276	22,380000	52,345000
3,004909	395,861758	12,787	0,029749	22,380000	52,345000
3,006624	396,312659	12,837	0,029937	22,380000	52,345000
3,008228	398,995869	12,887	0,031059	22,380000	52,345000
3,009914	399,581106	12,938	0,031303	22,370000	52,345000
3,011561	402,350759	12,988	0,032461	22,370000	52,345000
3,013264	402,627607	13,038	0,032577	22,370000	52,345000
3,014951	404,629794	13,088	0,033414	22,370000	52,345000
3,016656	406,220797	13,138	0,034079	22,370000	52,345000
3,018262	408,475301	13,188	0,035021	22,370000	52,345000
3,019938	408,712433	13,238	0,035120	22,370000	52,345000
3,021574	411,751925	13,288	0,036391	22,370000	52,345000
3,023291	411,823181	13,338	0,036420	22,370000	52,345000
3,024953	415,004018	13,388	0,037750	22,370000	52,345000
3,026633	415,463096	13,438	0,037942	22,370000	52,345000
3,028247	417,457106	13,490	0,038775	22,370000	52,345000
3,029926	418,770092	13,541	0,039324	22,370000	52,345000
3,031646	421,879673	13,591	0,040624	22,370000	52,345000
3,033262	421,523391	13,641	0,040475	22,370000	52,345000
3,034912	423,589825	13,691	0,041339	22,370000	52,345000
3,036652	425,282456	13,741	0,042046	22,370000	52,345000
3,038261	426,591937	13,791	0,042594	22,370000	52,345000
3,039979	429,721376	13,841	0,043902	22,370000	52,345000
3,041579	431,533156	13,892	0,044659	22,370000	52,345000
3,043312	432,182641	13,942	0,044931	22,370000	52,345000
3,044953	434,478030	13,992	0,045890	22,370000	52,345000
3,046603	434,478030	14,042	0,045890	22,370000	52,345000
3,048290	436,709171	14,092	0,046823	22,370000	52,345000
3,049894	439,280241	14,142	0,047897	22,370000	52,345000
3,051589	439,525549	14,193	0,048000	22,370000	52,345000
3,053277	442,280016	14,244	0,049151	22,370000	52,345000
3,055005	442,437715	14,295	0,049217	22,370000	52,345000
3,056606	445,270447	14,346	0,050401	22,370000	52,345000
3,058261	447,343890	14,396	0,051268	22,370000	52,345000
3,059926	448,175604	14,446	0,051616	22,370000	52,345000
3,061617	448,989795	14,496	0,051956	22,370000	52,345000
3,063251	451,474422	14,546	0,052995	22,370000	52,345000
3,064979	451,815518	14,596	0,053137	22,370000	52,345000
3,066586	454,600357	14,646	0,054301	22,370000	52,345000
3,068242	455,106160	14,696	0,054513	22,370000	52,345000
3,069956	458,152661	14,746	0,055786	22,370000	52,345000
3,071603	458,445864	14,797	0,055909	22,370000	52,345000
3,073280	460,993571	14,847	0,056974	22,370000	52,345000
3,074952	461,484188	14,897	0,057179	22,370000	52,345000
3,076621	463,557631	14,948	0,058045	22,380000	52,345000
3,078268	464,641662	14,998	0,058499	22,380000	52,345000
3,080042	466,952237	15,049	0,059464	22,380000	52,345000
3,081593	469,151839	15,099	0,060384	22,380000	52,345000
3,083249	469,587554	15,149	0,060566	22,380000	52,345000
3,084931	470,932080	15,199	0,061128	22,380000	52,345000
3,086545	473,386336	15,249	0,062154	22,380000	52,345000
3,088282	474,232067	15,299	0,062507	22,380000	52,345000
3,089949	476,542642	15,349	0,063473	22,380000	52,345000
3,091578	477,326462	15,399	0,063801	22,380000	52,345000
3,093280	479,748009	15,449	0,064813	22,380000	52,345000
3,094931	480,641634	15,499	0,065187	22,380000	52,345000
3,096574	482,952209	15,549	0,066152	22,380000	52,345000
3,098292	483,910081	15,599	0,066553	22,380000	52,345000
3,099996	485,673968	15,650	0,067290	22,380000	52,345000
3,101615	487,011485	15,700	0,067849	22,380000	52,345000
3,103252	488,697107	15,750	0,068554	22,380000	52,345000
3,104944	490,264747	15,800	0,069209	22,380000	52,345000
3,106613	493,263354	15,850	0,070462	22,380000	52,345000
3,108280	493,207284	15,901	0,070439	22,380000	52,345000
3,109975	495,075135	15,951	0,071220	22,380000	52,345000
3,111539	497,567939	16,001	0,072262	22,380000	52,345000
3,113254	499,918230	16,051	0,073244	22,380000	52,345000
3,114945	500,535007	16,102	0,073502	22,380000	52,345000
3,116599	503,177333	16,152	0,074606	22,380000	52,345000
3,118276	503,613048	16,202	0,074789	22,380000	52,345000
3,119894	504,681893	16,252	0,075235	22,380000	52,345000
3,121624	506,082489	16,302	0,075821	22,380000	52,345000
3,123258	507,798482	16,352	0,076538	22,380000	52,345000
3,124927	510,038969	16,403	0,077475	22,380000	52,345000
3,126644	512,475703	16,454	0,078493	22,380000	52,345000
3,128327	513,029400	16,505	0,078725	22,380000	52,345000
3,129901	515,475478	16,555	0,079747	22,380000	52,345000
3,131618	516,329387	16,605	0,080104	22,380000	52,345000
3,133297	518,631785	16,656	0,081066	22,380000	52,345000
3,134909	519,107216	16,707	0,081265	22,380000	52,345000
3,136607	521,852338	16,757	0,082413	22,380000	52,345000
3,138309	521,837152	16,808	0,082406	22,380000	52,345000
3,139895	524,907016	16,859	0,083689	22,380000	52,345000
3,141580	525,263298	16,909	0,083838	22,370000	52,345000
3,143302	528,142756	16,959	0,085042	22,370000	52,345000
3,144908	528,483852	17,010	0,085185	22,370000	52,345000
3,146524	531,324761	17,062	0,086372	22,370000	52,345000
3,148274	531,442743	17,112	0,086421	22,370000	52,345000
3,149929	534,410979	17,162	0,087662	22,370000	52,345000
3,151614	534,402802	17,212	0,087659	22,370000	52,345000
3,153205	536,262476	17,262	0,088436	22,370000	52,345000
3,154948	537,955106	17,312	0,089144	22,370000	52,345000
3,156562	540,535521	17,363	0,090222	22,370000	52,345000
3,158254	540,875449	17,413	0,090364	22,370000	52,345000
3,159930	542,743300	17,463	0,091145	22,370000	52,345000
3,161601	544,096002	17,513	0,091710	22,370000	52,345000
3,163257	545,702190	17,563	0,092382	22,370000	52,345000
3,164915	547,419352	17,613	0,093100	22,370000	52,345000
3,166586	548,985823	17,663	0,093754	22,370000	52,345000
3,168276	550,450667	17,714	0,094367	22,370000	52,345000
3,169927	552,230908	17,764	0,095111	22,370000	52,345000
3,171514	553,789203	17,814	0,095762	22,370000	52,345000
3,173280	556,606749	17,865	0,096940	22,370000	52,345000
3,174941	558,521326	17,915	0,097740	22,370000	52,345000
3,176589	559,462844	17,966	0,098134	22,370000	52,345000
3,178219	561,678800	18,016	0,099060	22,370000	52,345000
3,179893	562,169417	18,066	0,099265	22,370000	52,345000
3,181638	564,970610	18,117	0,100436	22,370000	52,345000
3,183239	564,978787	18,168	0,100439	22,370000	52,345000
3,184925	567,937678	18,218	0,101676	22,370000	52,345000
3,186581	569,646662	18,268	0,102391	22,370000	52,345000
3,188252	570,904745	18,319	0,102917	22,370000	52,345000
3,189936	571,015718	18,369	0,102963	22,370000	52,345000
3,191554	574,330891	18,419	0,104349	22,370000	52,345000
3,193223	574,687173	18,469	0,104498	22,370000	52,345000
3,194939	577,053818	18,519	0,105487	22,370000	52,345000
3,196606	578,050239	18,569	0,105903	22,370000	52,345000
3,198213	580,804706	18,620	0,107055	22,370000	52,345000
3,199910	581,912100	18,670	0,107518	22,370000	52,345000
3,201630	583,985543	18,720	0,108384	22,370000	52,345000
3,203233	584,380373	18,771	0,108549	22,370000	52,345000
3,204858	586,865001	18,821	0,109588	22,370000	52,345000
3,206576	587,340432	18,871	0,109787	22,370000	52,345000
3,208251	589,105487	18,921	0,110524	22,370000	52,335000
3,209927	590,703499	18,971	0,111192	22,370000	52,335000
3,211582	593,259382	19,022	0,112261	22,370000	52,335000
3,213243	593,750000	19,072	0,112466	22,370000	52,335000
3,214967	594,905287	19,122	0,112949	22,370000	52,335000
3,216603	596,432042	19,173	0,113587	22,370000	52,335000
3,218322	598,252000	19,223	0,114348	22,370000	52,335000
3,219895	600,096488	19,273	0,115119	22,370000	52,335000
3,221538	602,461965	19,323	0,116107	22,370000	52,335000
3,223214	604,812257	19,373	0,117090	22,370000	52,335000
3,224893	605,334414	19,423	0,117308	22,370000	52,335000
3,226613	607,961554	19,473	0,118406	22,370000	52,335000
3,228239	607,969731	19,524	0,118410	22,370000	52,335000
3,229910	610,905259	19,575	0,119637	22,370000	52,335000
3,231584	611,095666	19,625	0,119716	22,370000	52,335000
3,233240	614,165530	19,676	0,121000	22,370000	52,335000
3,234872	614,165530	19,726	0,121000	22,370000	52,335000
3,236601	617,560136	19,777	0,122418	22,370000	52,335000
3,238244	617,608029	19,828	0,122438	22,370000	52,335000
3,239884	620,432584	19,878	0,123619	22,370000	52,335000
3,241595	620,432584	19,928	0,123619	22,370000	52,335000
3,243192	623,716217	19,978	0,124992	22,370000	52,335000
3,244901	623,898447	20,029	0,125068	22,370000	52,335000
3,246594	626,928594	20,079	0,126334	22,370000	52,335000
3,248273	627,071107	20,129	0,126394	22,370000	52,335000
3,249920	630,213395	20,179	0,127708	22,370000	52,335000
3,251544	630,505430	20,230	0,127830	22,370000	52,335000
3,253207	631,914203	20,280	0,128418	22,370000	52,335000
3,254939	633,465489	20,331	0,129067	22,370000	52,335000
3,256599	634,564705	20,381	0,129526	22,370000	52,335000
3,258254	638,284054	20,431	0,131081	22,370000	52,335000
3,259883	638,275877	20,481	0,131078	22,370000	52,335000
3,261589	639,581854	20,531	0,131624	22,370000	52,335000
3,263239	641,164679	20,581	0,132285	22,370000	52,335000
3,264918	642,722974	20,631	0,132937	22,370000	52,335000
3,266581	644,899213	20,681	0,133846	22,370000	52,335000
3,268247	646,031138	20,731	0,134319	22,370000	52,335000
3,269895	647,519344	20,781	0,134941	22,370000	52,335000
3,271559	651,063472	20,831	0,136423	22,370000	52,335000
3,273286	651,467647	20,882	0,136592	22,370000	52,335000
3,274931	653,841302	20,932	0,137584	22,370000	52,295000
3,276565	654,584237	20,982	0,137895	22,370000	52,295000
3,278259	657,156474	21,032	0,138970	22,370000	52,295000
3,279917	657,179837	21,082	0,138979	22,370000	52,295000
3,281584	660,163259	21,132	0,140227	22,370000	52,295000
3,283215	661,872243	21,182	0,140941	22,370000	52,295000
3,284946	663,305547	21,233	0,141540	22,370000	52,295000
3,286592	663,842890	21,283	0,141765	22,370000	52,295000
3,288241	666,857852	21,333	0,143025	22,370000	52,295000
3,289888	666,874206	21,384	0,143032	22,370000	52,295000
3,291581	670,118122	21,434	0,144388	22,370000	52,295000
3,293223	671,447462	21,487	0,144943	22,370000	52,295000
3,294898	672,262821	21,538	0,145284	22,370000	52,295000
3,296579	672,737085	21,588	0,145482	22,370000	52,295000
3,298247	675,577994	21,639	0,146670	22,370000	52,295000
3,299929	676,076789	21,689	0,146878	22,370000	52,295000
3,301572	679,391961	21,739	0,148264	22,370000	52,295000
3,303208	679,368599	21,790	0,148254	22,370000	52,295000
3,304902	682,675594	21,840	0,149637	22,370000	52,295000
3,306550	684,044651	21,891	0,150209	22,370000	52,295000
3,308219	684,796931	21,941	0,150523	22,370000	52,295000
3,309932	685,342451	21,991	0,150751	22,370000	52,295000
3,311502	688,491748	22,041	0,152068	22,370000	52,295000
3,313225	689,418081	22,091	0,152455	22,370000	52,295000
3,314939	691,498533	22,141	0,153325	22,370000	52,295000
3,316511	691,854815	22,191	0,153474	22,370000	52,295000
3,318269	694,846413	22,241	0,154724	22,370000	52,295000
3,319933	695,345208	22,292	0,154933	22,370000	52,295000
3,321541	697,362580	22,342	0,155776	22,370000	52,295000
3,323205	698,367178	22,392	0,156196	22,370000	52,295000
3,324898	701,262990	22,442	0,157406	22,370000	52,295000
3,326571	701,715059	22,492	0,157595	22,370000	52,295000
3,328262	704,310659	22,542	0,158680	22,370000	52,295000
3,329879	704,769737	22,592	0,158872	22,370000	52,295000
3,331578	707,823247	22,643	0,160148	22,370000	52,295000
3,333225	709,223843	22,693	0,160734	22,370000	52,295000
3,334950	710,592900	22,743	0,161306	22,370000	52,295000
3,336544	711,035624	22,793	0,161491	22,370000	52,295000
3,338245	713,029633	22,843	0,162325	22,370000	52,295000
3,339870	714,461769	22,894	0,162923	22,370000	52,295000
3,341541	715,855357	22,944	0,163506	22,380000	52,305000
3,343201	718,901858	22,994	0,164779	22,380000	52,305000
3,344842	719,392475	23,044	0,164984	22,380000	52,305000
3,346631	722,264924	23,096	0,166185	22,380000	52,305000
3,348235	722,628215	23,146	0,166337	22,380000	52,305000
3,349884	725,326611	23,197	0,167465	22,380000	52,305000
3,351611	725,437584	23,247	0,167511	22,380000	52,305000
3,353204	728,270316	23,298	0,168695	22,380000	52,305000
3,354924	728,571696	23,348	0,168821	22,380000	52,305000
3,356565	731,356534	23,399	0,169985	22,380000	52,305000
3,358215	732,251327	23,449	0,170359	22,380000	52,305000
3,359930	734,853936	23,499	0,171447	22,380000	52,305000
3,361576	735,202041	23,549	0,171593	22,380000	52,305000
3,363224	737,631766	23,599	0,172608	22,380000	52,305000
3,364890	737,963517	23,650	0,172747	22,380000	52,305000
3,366586	740,789240	23,700	0,173928	22,380000	52,305000
3,368245	741,081274	23,750	0,174050	22,380000	52,305000
3,369901	743,661689	23,801	0,175129	22,380000	52,305000
3,371531	744,294819	23,852	0,175394	22,380000	52,305000
3,373237	746,501430	23,902	0,176316	22,380000	52,305000
3,374916	747,664894	23,952	0,176802	22,380000	52,305000
3,376553	750,054902	24,002	0,177801	22,380000	52,305000
3,378233	750,498794	24,052	0,177987	22,380000	52,305000
3,379965	753,338535	24,102	0,179174	22,380000	52,305000
3,381573	753,885224	24,152	0,179402	22,380000	52,305000
3,383192	755,357076	24,203	0,180018	22,380000	52,305000
3,384905	758,332321	24,253	0,181261	22,380000	52,305000
3,386507	759,345096	24,304	0,181685	22,380000	52,305000
3,388202	760,294791	24,355	0,182082	22,380000	52,305000
3,389838	762,406783	24,405	0,182964	22,380000	52,305000
3,391507	763,949892	24,455	0,183609	22,380000	52,305000
3,393203	765,184612	24,505	0,184125	22,380000	52,305000
3,394876	766,616748	24,555	0,184724	22,380000	52,305000
3,396558	768,713554	24,605	0,185601	22,380000	52,305000
3,398225	770,422539	24,655	0,186315	22,380000	52,305000
3,399922	771,396765	24,706	0,186722	22,380000	52,305000
3,401576	774,181603	24,756	0,187886	22,380000	52,305000
3,403201	776,334480	24,807	0,188786	22,380000	52,305000
3,404890	776,967610	24,858	0,189051	22,380000	52,305000
3,406582	779,412521	24,909	0,190073	22,380000	52,320000
3,408181	780,939276	24,959	0,190711	22,380000	52,320000
3,409881	782,474208	25,009	0,191353	22,380000	52,320000
3,411487	782,633074	25,059	0,191419	22,380000	52,320000
3,413181	784,207723	25,109	0,192077	22,380000	52,320000
3,414890	787,380383	25,159	0,193403	22,380000	52,320000
3,416565	787,380383	25,211	0,193403	22,380000	52,320000
3,418170	789,057827	25,262	0,194104	22,380000	52,320000
3,419924	790,640653	25,312	0,194766	22,380000	52,320000
3,421503	793,275970	25,362	0,195868	22,380000	52,320000
3,423221	793,789950	25,412	0,196083	22,380000	52,320000
3,424867	796,266401	25,462	0,197118	22,380000	52,320000
3,426568	796,750009	25,512	0,197320	22,380000	52,320000
3,428201	799,027876	25,562	0,198272	22,380000	52,320000
3,429848	800,325677	25,612	0,198814	22,380000	52,320000
3,431458	802,296324	25,662	0,199638	22,380000	52,320000
3,433209	805,026260	25,712	0,200779	22,380000	52,320000
3,434895	805,675744	25,762	0,201051	22,380000	52,320000
3,436542	806,640625	25,812	0,201454	22,380000	52,320000
3,438224	808,768971	25,862	0,202344	22,380000	52,320000
3,439952	811,095899	25,912	0,203316	22,380000	52,320000
3,441518	811,444004	25,963	0,203462	22,380000	52,320000
3,443180	814,790717	26,013	0,204861	22,380000	52,320000
3,444851	814,830433	26,063	0,204877	22,380000	52,320000
3,446527	817,734422	26,113	0,206091	22,380000	52,320000
3,448195	817,885111	26,164	0,206154	22,380000	52,320000
3,449908	820,528605	26,215	0,207259	22,380000	52,320000
3,451525	821,137205	26,265	0,207514	22,380000	52,320000
3,453259	824,017830	26,315	0,208718	22,380000	52,320000
3,454852	824,270148	26,366	0,208823	22,380000	52,320000
3,456533	827,143765	26,417	0,210024	22,380000	52,320000
3,458202	827,245393	26,467	0,210067	22,380000	52,320000
3,459895	830,324602	26,517	0,211354	22,380000	52,320000
3,461538	830,522017	26,567	0,211437	22,380000	52,320000
3,463217	833,046361	26,617	0,212492	22,380000	52,320000
3,464862	833,845367	26,667	0,212826	22,380000	52,320000
3,466570	836,409427	26,717	0,213897	22,380000	52,320000
3,468200	836,504046	26,767	0,213937	22,380000	52,320000
3,469853	839,613627	26,817	0,215237	22,380000	52,320000
3,471530	839,890475	26,868	0,215353	22,380000	52,320000
3,473140	842,280484	26,919	0,216352	22,380000	52,320000
3,474803	843,079489	26,969	0,216686	22,380000	52,320000
3,476535	844,867907	27,019	0,217433	22,380000	52,320000
3,478209	846,094451	27,069	0,217946	22,380000	52,320000
3,479881	848,207611	27,122	0,218829	22,380000	52,320000
3,481549	849,750720	27,172	0,219474	22,380000	52,320000
3,483210	851,293828	27,222	0,220119	22,380000	52,320000
3,484849	852,575275	27,274	0,220655	22,380000	52,320000
3,486509	854,434949	27,325	0,221432	22,380000	52,320000
3,488153	855,804005	27,376	0,222004	22,380000	52,320000
3,489821	858,938117	27,426	0,223314	22,380000	52,320000
3,491529	858,787427	27,476	0,223251	22,380000	52,320000
3,493208	860,781437	27,527	0,224085	22,380000	52,320000
3,494821	862,142316	27,577	0,224654	22,380000	52,320000
3,496547	865,505383	27,628	0,226060	22,380000	52,320000
3,498178	866,012354	27,679	0,226271	22,380000	52,320000
3,499880	868,535530	27,729	0,227326	22,380000	52,320000
3,501589	868,908166	27,779	0,227482	22,380000	52,320000
3,503177	871,709358	27,830	0,228653	22,380000	52,320000
3,504852	873,196397	27,880	0,229274	22,380000	52,320000
3,506486	874,873841	27,930	0,229976	22,380000	52,320000
3,508204	876,527923	27,980	0,230667	22,380000	52,320000
3,509893	877,802361	28,030	0,231200	22,380000	52,320000
3,511544	878,863029	28,080	0,231643	22,380000	52,320000
3,513188	879,796370	28,130	0,232033	22,380000	52,320000
3,514870	881,901353	28,180	0,232913	22,380000	52,320000
3,516546	882,731899	28,230	0,233260	22,380000	52,320000
3,518223	884,433874	28,280	0,233972	22,380000	52,320000
3,519855	885,983992	28,331	0,234620	22,380000	52,320000
3,521539	888,025895	28,382	0,235473	22,380000	52,320000
3,523183	889,196368	28,432	0,235962	22,380000	52,320000
3,524827	891,158839	28,483	0,236783	22,380000	52,320000
3,526567	892,520886	28,533	0,237352	22,380000	52,320000
3,528221	894,142260	28,583	0,238030	22,380000	52,320000
3,529876	895,322079	28,633	0,238523	22,380000	52,320000
3,531525	897,347628	28,683	0,239370	22,380000	52,320000
3,533182	899,974768	28,733	0,240468	22,380000	52,320000
3,534827	901,889345	28,784	0,241268	22,380000	52,320000
3,536567	902,719890	28,835	0,241615	22,380000	52,320000
3,538186	904,998925	28,885	0,242568	22,380000	52,320000
3,539865	906,359805	28,935	0,243137	22,380000	52,345000
3,541498	906,770989	28,985	0,243309	22,380000	52,345000
3,543183	909,271970	29,037	0,244354	22,380000	52,345000
3,544863	911,186547	29,087	0,245154	22,380000	52,345000
3,546514	912,397905	29,138	0,245661	22,380000	52,345000
3,548191	912,951602	29,189	0,245892	22,380000	52,345000
3,549807	915,040231	29,239	0,246765	22,380000	52,345000
3,551552	916,797109	29,290	0,247500	22,380000	52,345000
3,553123	918,490907	29,340	0,248208	22,380000	52,345000
3,554881	919,614655	29,390	0,248677	22,380000	52,345000
3,556472	922,787315	29,440	0,250003	22,380000	52,345000
3,558160	922,700873	29,491	0,249967	22,380000	52,345000
3,559838	924,298884	29,541	0,250635	22,380000	52,345000
3,561491	926,007869	29,591	0,251350	22,380000	52,345000
3,563170	927,685313	29,641	0,252051	22,380000	52,345000
3,564865	930,375533	29,691	0,253175	22,380000	52,345000
3,566520	930,882504	29,741	0,253387	22,380000	52,345000
3,568191	933,929005	29,791	0,254661	22,380000	52,345000
3,569824	933,794670	29,841	0,254604	22,380000	52,345000
3,571516	936,832994	29,891	0,255875	22,380000	52,345000
3,573189	937,022232	29,942	0,255954	22,380000	52,345000
3,574866	939,927389	29,992	0,257168	22,380000	52,345000
3,576523	940,426183	30,042	0,257376	22,380000	52,345000
3,578119	943,456330	30,092	0,258643	22,380000	52,345000
3,579900	943,527587	30,143	0,258673	22,380000	52,345000
3,581473	946,811220	30,193	0,260045	22,380000	52,345000
3,583180	948,417408	30,243	0,260717	22,380000	52,345000
3,584867	948,433762	30,294	0,260724	22,380000	52,345000
3,586522	949,802818	30,344	0,261296	22,380000	52,345000
3,588199	952,547940	30,395	0,262443	22,380000	52,345000
3,589792	952,358702	30,445	0,262364	22,380000	52,345000
3,589882	954,281456	30,495	0,263168	22,380000	52,345000
3,589817	954,145952	30,545	0,263111	22,380000	52,345000
3,589793	954,289633	30,595	0,263171	22,380000	52,345000
3,589810	954,170483	30,645	0,263122	22,380000	52,345000
3,589793	954,225385	30,696	0,263145	22,380000	52,345000
3,589887	954,107403	30,747	0,263095	22,380000	52,345000
3,589858	953,877280	30,797	0,262999	22,380000	52,345000
3,589796	954,225385	30,848	0,263145	22,380000	52,345000
3,589795	953,980076	30,898	0,263042	22,380000	52,345000
3,589893	953,925174	30,948	0,263019	22,370000	52,320000
3,589829	954,241739	30,998	0,263151	22,370000	52,320000
3,589849	954,004607	31,052	0,263052	22,370000	52,320000
3,589808	953,837564	31,106	0,262982	22,370000	52,320000
3,589782	954,202022	31,156	0,263135	22,370000	52,320000
3,589845	954,027970	31,207	0,263062	22,370000	52,320000
3,589809	953,806024	31,257	0,262969	22,370000	52,320000
3,589840	953,940360	31,307	0,263025	22,370000	52,320000
3,589834	953,996430	31,357	0,263049	22,370000	52,320000
3,589873	953,782661	31,407	0,262959	22,370000	52,320000
3,589844	953,790838	31,458	0,262963	22,370000	52,320000
3,588166	952,025783	31,508	0,262225	22,370000	52,320000
3,586546	951,463909	31,559	0,261990	22,370000	52,320000
3,584821	948,788876	31,609	0,260872	22,370000	52,320000
3,583136	949,145157	31,659	0,261021	22,370000	52,320000
3,581490	945,268111	31,709	0,259400	22,370000	52,320000
3,579824	945,592853	31,759	0,259536	22,370000	52,320000
3,578164	943,234384	31,809	0,258550	22,370000	52,320000
3,576508	942,016017	31,859	0,258041	22,370000	52,320000
3,574862	938,977693	31,909	0,256771	22,370000	52,320000
3,573139	938,661128	31,959	0,256639	22,370000	52,320000
3,571507	937,608637	32,009	0,256199	22,370000	52,320000
3,569834	934,918417	32,060	0,255074	22,370000	52,320000
3,568189	934,094881	32,110	0,254730	22,370000	52,320000
3,566506	930,857973	32,160	0,253377	22,370000	52,320000
3,564814	931,262149	32,210	0,253546	22,370000	52,320000
3,563200	929,117449	32,260	0,252649	22,370000	52,320000
3,561489	927,622234	32,310	0,252024	22,370000	52,320000
3,559818	925,580330	32,360	0,251171	22,370000	52,320000
3,558185	924,536016	32,410	0,250734	22,370000	52,320000
3,556484	922,755775	32,460	0,249990	22,370000	52,320000
3,554841	920,342404	32,511	0,248981	22,370000	52,320000
3,553174	919,409063	32,561	0,248591	22,370000	52,320000
3,551505	917,374168	32,611	0,247741	22,370000	52,320000
3,549867	914,337012	32,662	0,246471	22,370000	52,320000
3,548151	914,320658	32,713	0,246464	22,370000	52,320000
3,546437	911,582545	32,764	0,245320	22,370000	52,320000
3,544834	910,743823	32,816	0,244969	22,370000	52,320000
3,543147	907,982347	32,866	0,243815	22,370000	52,320000
3,541511	908,156400	32,917	0,243888	22,380000	52,335000
3,539870	904,761794	32,967	0,242469	22,380000	52,335000
3,538186	905,109898	33,017	0,242614	22,380000	52,335000
3,536512	901,826265	33,067	0,241242	22,380000	52,335000
3,534798	901,541240	33,117	0,241123	22,380000	52,335000
3,533144	898,297324	33,167	0,239767	22,380000	52,335000
3,531465	898,534455	33,217	0,239866	22,380000	52,335000
3,529834	897,022886	33,268	0,239234	22,380000	52,335000
3,528153	894,735674	33,318	0,238278	22,380000	52,335000
3,526510	892,425099	33,369	0,237312	22,380000	52,335000
3,524834	891,791969	33,419	0,237047	22,380000	52,335000
3,523126	890,336470	33,470	0,236439	22,380000	52,335000
3,521493	888,777007	33,520	0,235787	22,380000	52,335000
3,519803	887,091386	33,570	0,235083	22,380000	52,335000
3,518180	885,422118	33,620	0,234385	22,380000	52,335000
3,516522	883,704957	33,670	0,233667	22,380000	52,335000
3,514805	882,130308	33,720	0,233009	22,380000	52,335000
3,513133	880,611730	33,770	0,232374	22,380000	52,335000
3,511525	878,878215	33,820	0,231649	22,380000	52,335000
3,509777	877,540698	33,870	0,231090	22,380000	52,335000
3,508194	875,649484	33,920	0,230300	22,380000	52,335000
3,506490	874,083012	33,970	0,229645	22,380000	52,335000
3,504858	872,271232	34,021	0,228888	22,380000	52,335000
3,503176	870,751486	34,071	0,228252	22,380000	52,335000
3,501545	868,971245	34,121	0,227508	22,380000	52,335000
3,499857	866,677024	34,171	0,226549	22,380000	52,335000
3,498213	865,932921	34,221	0,226238	22,380000	52,335000
3,496476	863,915548	34,272	0,225395	22,380000	52,335000
3,494857	862,743907	34,322	0,224905	22,380000	52,335000
3,493193	860,123776	34,372	0,223810	22,380000	52,335000
3,491536	859,404203	34,422	0,223509	22,380000	52,335000
3,489897	856,888036	34,473	0,222458	22,380000	52,335000
3,488186	855,962872	34,524	0,222071	22,380000	52,335000
3,486517	854,205994	34,574	0,221336	22,380000	52,335000
3,484795	852,971273	34,624	0,220820	22,380000	52,335000
3,483150	851,555491	34,675	0,220229	22,380000	52,335000
3,481488	849,805622	34,725	0,219497	22,380000	52,335000
3,479876	847,708816	34,776	0,218621	22,380000	52,335000
3,478170	846,530166	34,826	0,218128	22,380000	52,335000
3,476558	845,041959	34,877	0,217506	22,380000	52,335000
3,474873	843,443948	34,928	0,216838	22,370000	52,335000
3,473188	841,900839	34,979	0,216193	22,370000	52,335000
3,471524	839,969909	35,029	0,215386	22,370000	52,335000
3,469863	837,168716	35,080	0,214215	22,370000	52,335000
3,468203	836,717815	35,136	0,214026	22,370000	52,335000
3,466494	833,765933	35,186	0,212792	22,370000	52,335000
3,464836	833,172520	35,236	0,212544	22,370000	52,335000
3,463145	830,672707	35,287	0,211500	22,370000	52,335000
3,461525	830,134196	35,338	0,211274	22,370000	52,335000
3,459815	827,530418	35,389	0,210186	22,370000	52,335000
3,458056	827,119234	35,439	0,210014	22,370000	52,335000
3,456512	825,093685	35,490	0,209167	22,370000	52,335000
3,454880	824,009653	35,540	0,208714	22,370000	52,335000
3,453181	821,042586	35,590	0,207474	22,370000	52,335000
3,451491	820,954975	35,641	0,207437	22,370000	52,335000
3,449848	817,560369	35,692	0,206019	22,370000	52,335000
3,448175	817,996084	35,742	0,206201	22,370000	52,335000
3,446559	814,585124	35,792	0,204775	22,370000	52,335000
3,444876	813,857375	35,842	0,204471	22,370000	52,335000
3,443235	811,942799	35,895	0,203670	22,370000	52,335000
3,441598	811,072537	35,945	0,203307	22,370000	52,335000
3,439934	809,315659	35,995	0,202572	22,370000	52,335000
3,438217	807,954779	36,045	0,202003	22,370000	52,335000
3,436523	806,062397	36,095	0,201212	22,370000	52,335000
3,434833	805,018083	36,145	0,200776	22,370000	52,335000
3,433202	802,732039	36,195	0,199820	22,370000	52,335000
3,431540	800,017288	36,245	0,198686	22,370000	52,335000
3,429896	799,677361	36,298	0,198543	22,370000	52,335000
3,428166	798,402923	36,348	0,198011	22,370000	52,335000
3,426481	796,488347	36,398	0,197210	22,370000	52,335000
3,424875	795,150830	36,448	0,196651	22,370000	52,335000
3,423164	791,930276	36,498	0,195305	22,370000	52,335000
3,421504	791,368402	36,549	0,195070	22,370000	52,335000
3,419876	790,213115	36,599	0,194587	22,370000	52,335000
3,418208	787,404914	36,649	0,193414	22,370000	52,335000
3,416480	785,363010	36,700	0,192560	22,370000	52,335000
3,414892	784,602553	36,751	0,192242	22,370000	52,335000
3,413201	783,914520	36,801	0,191955	22,370000	52,335000
3,411494	780,995346	36,852	0,190734	22,370000	52,335000
3,409890	780,575985	36,903	0,190559	22,370000	52,335000
3,408257	778,169623	36,953	0,189553	22,370000	52,335000
3,406507	775,630093	37,003	0,188492	22,370000	52,335000
3,404866	776,128888	37,054	0,188700	22,370000	52,335000
3,403227	774,055444	37,105	0,187833	22,370000	52,335000
3,401468	771,214535	37,155	0,186646	22,370000	52,335000
3,399858	771,166642	37,206	0,186626	22,370000	52,335000
3,398177	769,061659	37,257	0,185746	22,370000	52,335000
3,396581	767,732319	37,308	0,185190	22,370000	52,335000
3,394874	764,922950	37,359	0,184016	22,370000	52,335000
3,393197	764,480226	37,409	0,183831	22,370000	52,335000
3,391608	762,715171	37,459	0,183093	22,370000	52,335000
3,389834	761,513158	37,510	0,182591	22,370000	52,335000
3,388221	758,213171	37,560	0,181211	22,370000	52,335000
3,386511	757,223759	37,610	0,180798	22,370000	52,335000
3,384866	756,583620	37,660	0,180530	22,370000	52,335000
3,383230	753,868870	37,710	0,179396	22,370000	52,335000
3,381544	751,763887	37,760	0,178516	22,370000	52,335000
3,379868	751,210190	37,810	0,178284	22,370000	52,335000
3,378243	748,218591	37,861	0,177034	22,370000	52,335000
3,376572	748,757102	37,912	0,177259	22,370000	52,335000
3,374900	745,488655	37,963	0,175893	22,370000	52,335000
3,373242	745,291240	38,013	0,175810	22,370000	52,335000
3,371545	742,141943	38,063	0,174494	22,370000	52,335000
3,369915	741,603432	38,113	0,174269	22,370000	52,335000
3,368252	738,541745	38,163	0,172989	22,370000	52,335000
3,366537	738,596647	38,214	0,173012	22,370000	52,335000
3,364825	735,811808	38,265	0,171848	22,370000	52,335000
3,363204	735,962498	38,315	0,171911	22,370000	52,335000
3,361508	732,392672	38,365	0,170418	22,370000	52,335000
3,359876	732,251327	38,415	0,170359	22,370000	52,335000
3,358210	730,905633	38,465	0,169797	22,370000	52,335000
3,356575	728,934986	38,515	0,168973	22,370000	52,335000
3,354805	727,630177	38,565	0,168428	22,370000	52,335000
3,353185	725,777512	38,615	0,167653	22,370000	52,335000
3,351533	722,802267	38,665	0,166410	22,370000	52,335000
3,349883	722,541773	38,715	0,166301	22,370000	52,335000
3,348220	721,481104	38,765	0,165857	22,370000	52,335000
3,346547	719,067733	38,815	0,164849	22,370000	52,335000
3,344881	718,063135	38,865	0,164429	22,370000	52,335000
3,343168	716,171922	38,915	0,163638	22,380000	52,345000
3,341580	714,976918	38,965	0,163139	22,380000	52,345000
3,339867	712,895298	39,015	0,162269	22,380000	52,345000
3,338264	710,221432	39,065	0,161151	22,380000	52,345000
3,336515	709,682921	39,115	0,160926	22,380000	52,345000
3,334891	708,376944	39,165	0,160380	22,380000	52,345000
3,333204	706,636420	39,215	0,159652	22,380000	52,345000
3,331533	705,219470	39,265	0,159060	22,380000	52,345000
3,329819	703,558379	39,315	0,158366	22,380000	52,345000
3,328237	700,385719	39,365	0,157040	22,380000	52,345000
3,326539	700,472161	39,416	0,157076	22,380000	52,345000
3,324922	697,528456	39,467	0,155845	22,380000	52,345000
3,323202	697,054192	39,517	0,155647	22,380000	52,345000
3,321577	694,576574	39,568	0,154611	22,380000	52,345000
3,319888	693,628047	39,618	0,154215	22,380000	52,345000
3,318208	690,936659	39,668	0,153090	22,380000	52,345000
3,316545	690,881757	39,719	0,153067	22,380000	52,345000
3,314871	688,231254	39,769	0,151959	22,380000	52,345000
3,313239	687,344638	39,819	0,151588	22,380000	52,345000
3,311503	684,899727	39,869	0,150566	22,380000	52,345000
3,309866	684,187164	39,919	0,150269	22,380000	52,345000
3,308256	682,501542	39,970	0,149564	22,380000	52,345000
3,306607	681,410502	40,020	0,149108	22,380000	52,345000
3,304944	678,695752	40,070	0,147973	22,380000	52,345000
3,303243	677,817313	40,121	0,147606	22,380000	52,345000
3,301551	675,467021	40,171	0,146624	22,380000	52,345000
3,299951	674,826882	40,221	0,146356	22,380000	52,345000
3,298240	673,013934	40,272	0,145598	22,380000	52,345000
3,296501	671,407745	40,322	0,144927	22,380000	52,345000
3,294913	669,856459	40,372	0,144278	22,380000	52,345000
3,293241	668,392784	40,422	0,143667	22,380000	52,345000
3,291574	665,742281	40,472	0,142559	22,380000	52,345000
3,289935	663,455069	40,522	0,141603	22,380000	52,345000
3,288251	663,060238	40,573	0,141437	22,380000	52,345000
3,286537	660,408568	40,623	0,140329	22,380000	52,345000
3,284890	660,337311	40,673	0,140299	22,380000	52,345000
3,283228	657,529110	40,728	0,139125	22,380000	52,345000
3,281553	657,425146	40,780	0,139082	22,380000	52,345000
3,279868	655,028129	40,831	0,138080	22,380000	52,345000
3,278219	653,999000	40,881	0,137650	22,380000	52,345000
3,276593	651,728142	40,931	0,136701	22,390000	52,345000
3,274912	650,826340	40,981	0,136324	22,390000	52,345000
3,273197	648,476049	41,031	0,135341	22,390000	52,345000
3,271517	647,589433	41,081	0,134971	22,390000	52,345000
3,269932	645,508981	41,132	0,134101	22,390000	52,345000
3,268143	644,488029	41,182	0,133674	22,390000	52,345000
3,266560	642,351506	41,232	0,132781	22,390000	52,345000
3,264928	641,290838	41,282	0,132338	22,390000	52,345000
3,263231	639,462704	41,332	0,131574	22,390000	52,345000
3,261531	636,455919	41,382	0,130317	22,390000	52,345000
3,259884	636,163885	41,432	0,130195	22,390000	52,345000
3,258262	633,457312	41,482	0,129063	22,390000	52,345000
3,256558	633,140746	41,539	0,128931	22,390000	52,345000
3,254904	630,308014	41,590	0,127747	22,390000	52,345000
3,253271	629,762494	41,640	0,127519	22,390000	52,345000
3,251550	627,253336	41,690	0,126470	22,390000	52,345000
3,249916	626,446154	41,740	0,126133	22,390000	52,345000
3,248191	623,929987	41,790	0,125081	22,390000	52,345000
3,246537	623,644961	41,840	0,124962	22,390000	52,345000
3,244902	621,983870	41,890	0,124268	22,390000	52,345000
3,243244	620,384691	41,941	0,123599	22,390000	52,345000
3,241574	618,493477	41,992	0,122809	22,390000	52,345000
3,239950	617,195677	42,042	0,122266	22,390000	52,345000
3,238214	615,304463	42,093	0,121476	22,390000	52,345000
3,236576	614,094273	42,143	0,120970	22,390000	52,345000
3,234924	612,029007	42,193	0,120106	22,390000	52,345000
3,233214	609,489477	42,243	0,119045	22,390000	52,345000
3,231585	609,481300	42,294	0,119042	22,390000	52,345000
3,229942	607,558547	42,344	0,118238	22,390000	52,345000
3,228273	605,659156	42,394	0,117444	22,390000	52,345000
3,226550	604,353179	42,444	0,116898	22,390000	52,345000
3,224910	602,738814	42,495	0,116223	22,390000	52,345000
3,223295	601,220236	42,545	0,115588	22,390000	52,345000
3,221563	599,581340	42,595	0,114903	22,390000	52,345000
3,219923	597,310481	42,645	0,113954	22,390000	52,345000
3,218213	595,450807	42,701	0,113177	22,390000	52,345000
3,216559	594,636616	42,751	0,112836	22,390000	52,345000
3,214907	591,605301	42,801	0,111569	22,390000	52,345000
3,213225	591,383355	42,851	0,111477	22,390000	52,345000
3,211544	588,456003	42,901	0,110253	22,390000	52,345000
3,209916	588,250411	42,951	0,110167	22,380000	52,345000
3,208287	585,021681	43,001	0,108817	22,380000	52,345000
3,206579	585,101114	43,051	0,108851	22,380000	52,345000
3,204921	582,125869	43,101	0,107607	22,380000	52,345000
3,203274	582,197125	43,152	0,107637	22,380000	52,345000
3,201621	580,360814	43,202	0,106869	22,380000	52,345000
3,199887	578,628467	43,252	0,106145	22,380000	52,345000
3,198255	575,882177	43,303	0,104997	22,380000	52,345000
3,196545	575,542249	43,354	0,104855	22,380000	52,345000
3,194849	573,999140	43,404	0,104210	22,380000	52,345000
3,193296	570,612711	43,454	0,102794	22,380000	52,345000
3,191503	570,801949	43,505	0,102874	22,380000	52,345000
3,189936	569,013532	43,555	0,102126	22,380000	52,345000
3,188271	567,534670	43,605	0,101508	22,380000	52,345000
3,186576	565,912128	43,655	0,100830	22,380000	52,345000
3,184861	564,622505	43,706	0,100291	22,380000	52,345000
3,183311	561,465031	43,756	0,098971	22,380000	52,345000
3,181570	560,072611	43,806	0,098389	22,380000	52,345000
3,179987	558,093787	43,856	0,097562	22,380000	52,345000
3,178306	557,619524	43,907	0,097363	22,380000	52,345000
3,176587	554,929304	43,957	0,096239	22,380000	52,345000
3,174939	554,651288	44,007	0,096123	22,380000	52,345000
3,173233	551,787016	44,058	0,094925	22,380000	52,345000
3,171611	551,320929	44,108	0,094730	22,380000	52,345000
3,169902	548,811771	44,158	0,093682	22,380000	52,345000
3,168272	548,210181	44,208	0,093430	22,380000	52,345000
3,166589	545,465059	44,258	0,092283	22,380000	52,345000
3,164935	543,787614	44,312	0,091582	22,380000	52,345000
3,163206	542,481637	44,362	0,091036	22,380000	52,345000
3,161574	542,299408	44,413	0,090959	22,380000	52,345000
3,159936	539,189827	44,463	0,089660	22,380000	52,345000
3,158273	538,865085	44,513	0,089524	22,380000	52,345000
3,156582	535,993804	44,563	0,088324	22,380000	52,345000
3,154887	535,826761	44,613	0,088254	22,380000	52,345000
3,153265	532,922772	44,663	0,087040	22,380000	52,345000
3,151558	532,392438	44,713	0,086818	22,380000	52,345000
3,149905	531,039735	44,763	0,086253	22,380000	52,345000
3,148230	529,393830	44,813	0,085565	22,380000	52,345000
3,146553	527,756102	44,863	0,084880	22,380000	52,345000
3,144945	526,284250	44,913	0,084265	22,380000	52,345000
3,143250	523,490066	44,963	0,083097	22,380000	52,345000
3,141581	522,944546	45,014	0,082869	22,380000	52,345000
3,139921	521,361721	45,064	0,082208	22,380000	52,345000
3,138286	519,478684	45,114	0,081420	22,380000	52,345000
3,136573	518,117804	45,164	0,080852	22,380000	52,345000
3,134922	515,031586	45,214	0,079562	22,380000	52,345000
3,133263	513,473292	45,265	0,078910	22,380000	52,345000
3,131577	511,842573	45,316	0,078229	22,380000	52,345000
3,129895	511,494468	45,366	0,078083	22,380000	52,345000
3,128223	508,748178	45,416	0,076935	22,380000	52,345000
3,126554	507,664147	45,466	0,076482	22,380000	52,345000
3,124889	507,103441	45,516	0,076248	22,380000	52,345000
3,123256	504,586106	45,566	0,075195	22,380000	52,345000
3,121558	503,787100	45,616	0,074861	22,380000	52,345000
3,119936	501,113235	45,667	0,073744	22,380000	52,345000
3,118321	501,033801	45,717	0,073710	22,380000	52,345000
3,116603	498,762943	45,768	0,072761	22,380000	52,345000
3,114930	497,614664	45,818	0,072281	22,380000	52,345000
3,113265	494,433827	45,868	0,070952	22,380000	52,345000
3,111547	494,544800	45,918	0,070998	22,380000	52,345000
3,109928	491,806687	45,968	0,069854	22,380000	52,345000
3,108252	491,031044	46,018	0,069529	22,380000	52,345000
3,106553	489,646802	46,068	0,068951	22,380000	52,345000
3,104962	487,795305	46,119	0,068177	22,380000	52,345000
3,103268	486,267382	46,169	0,067538	22,380000	52,345000
3,101553	483,348208	46,219	0,066318	22,380000	52,345000
3,099888	483,356385	46,269	0,066321	22,380000	52,345000
3,098272	481,504887	46,319	0,065547	22,380000	52,345000
3,096602	479,937248	46,370	0,064892	22,380000	52,345000
3,094920	478,553005	46,421	0,064313	22,380000	52,345000
3,093263	475,173585	46,471	0,062901	22,380000	52,345000
3,091599	473,496140	46,521	0,062200	22,380000	52,345000
3,089958	473,378159	46,571	0,062150	22,380000	52,345000
3,088283	470,537250	46,621	0,060963	22,380000	52,345000
3,086551	470,449639	46,671	0,060926	22,380000	52,345000
3,084964	467,292165	46,721	0,059606	22,380000	52,345000
3,083259	465,820313	46,771	0,058991	22,380000	52,345000
3,081640	464,142868	46,821	0,058290	22,380000	52,345000
3,079954	463,786586	46,871	0,058141	22,380000	52,345000
3,078261	461,136083	46,922	0,057033	22,380000	52,335000
3,076601	461,049641	46,972	0,056997	22,380000	52,335000
3,074925	457,852450	47,022	0,055661	22,380000	52,335000
3,073243	456,150475	47,072	0,054949	22,380000	52,335000
3,071649	456,269625	47,122	0,054999	22,380000	52,335000
3,069939	454,378411	47,172	0,054208	22,380000	52,335000
3,068266	453,151867	47,222	0,053696	22,380000	52,335000
3,066582	451,111132	47,272	0,052843	22,380000	52,335000
3,064942	449,511952	47,322	0,052174	22,380000	52,335000
3,063271	448,119533	47,372	0,051592	22,380000	52,335000
3,061631	446,544884	47,422	0,050934	22,380000	52,335000
3,059928	443,221535	47,472	0,049545	22,380000	52,335000
3,058236	441,804585	47,522	0,048953	22,380000	52,335000
3,056629	440,103777	47,579	0,048242	22,380000	52,335000
3,054940	440,000981	47,629	0,048199	22,380000	52,335000
3,053280	437,120355	47,679	0,046995	22,380000	52,335000
3,051624	436,795613	47,729	0,046859	22,380000	52,335000
3,049948	433,931342	47,780	0,045662	22,380000	52,335000
3,048309	433,749112	47,830	0,045585	22,380000	52,335000
3,046605	431,027353	47,880	0,044448	22,380000	52,335000
3,044965	430,702611	47,934	0,044312	22,380000	52,335000
3,043251	428,107011	47,985	0,043227	22,380000	52,335000
3,041611	427,118767	48,035	0,042814	22,380000	52,335000
3,039920	424,879448	48,086	0,041878	22,380000	52,335000
3,038284	424,143522	48,137	0,041570	22,380000	52,335000
3,036577	422,101619	48,187	0,040717	22,380000	52,335000
3,034918	421,215003	48,237	0,040346	22,380000	52,335000
3,033242	418,136962	48,288	0,039060	22,380000	52,335000
3,031614	417,686061	48,340	0,038871	22,380000	52,335000
3,029939	415,834564	48,390	0,038097	22,380000	52,335000
3,028258	414,765718	48,440	0,037650	22,380000	52,335000
3,026637	412,977301	48,490	0,036903	22,380000	52,335000
3,024914	411,410829	48,540	0,036248	22,380000	52,335000
3,023238	409,836180	48,591	0,035590	22,380000	52,335000
3,021603	408,293072	48,642	0,034945	22,380000	52,335000
3,019898	406,980086	48,692	0,034396	22,380000	52,335000
3,018323	405,120412	48,742	0,033619	22,380000	52,335000
3,016565	403,648559	48,792	0,033003	22,380000	52,335000
3,014900	401,630018	48,842	0,032160	22,380000	52,335000
3,013198	398,616225	48,892	0,030900	22,380000	52,335000
3,011604	398,647765	48,942	0,030913	22,380000	52,335000
3,009892	395,545193	48,993	0,029616	22,380000	52,335000
3,008294	394,034792	49,043	0,028985	22,380000	52,335000
3,006626	394,066331	49,105	0,028998	22,380000	52,335000
3,004946	392,886513	49,155	0,028505	22,380000	52,335000
3,003240	389,903091	49,205	0,027258	22,380000	52,335000
3,001595	388,986104	49,255	0,026875	22,380000	52,335000
2,999955	386,793511	49,305	0,025958	22,380000	52,335000
2,998221	386,334433	49,356	0,025766	22,380000	52,335000
2,996653	383,581134	49,406	0,024615	22,380000	52,335000
2,994878	382,694518	49,456	0,024245	22,380000	52,335000
2,993286	381,373355	49,506	0,023692	22,380000	52,335000
2,991647	379,783521	49,557	0,023028	22,380000	52,335000
2,989896	377,860767	49,608	0,022224	22,380000	52,335000
2,988273	376,515074	49,658	0,021662	22,380000	52,335000
2,986613	374,947434	49,709	0,021006	22,380000	52,335000
2,984926	373,468572	49,759	0,020388	22,380000	52,335000
2,983251	371,625252	49,810	0,019618	22,380000	52,335000
2,981637	369,392943	49,860	0,018685	22,380000	52,335000
2,979948	368,681547	49,911	0,018387	22,380000	52,335000
2,978300	366,299716	49,961	0,017392	22,380000	52,335000
2,976625	365,255401	50,011	0,016955	22,380000	52,335000
2,974973	363,458807	50,061	0,016204	22,380000	52,335000
2,973289	360,902923	50,111	0,015136	22,380000	52,335000
2,971583	360,198537	50,161	0,014841	22,380000	52,335000
2,969948	357,650830	50,211	0,013776	22,380000	52,335000
2,968311	356,004925	50,262	0,013088	22,380000	52,335000
2,966627	354,485179	50,312	0,012453	22,380000	52,335000
2,964938	352,862636	50,362	0,011775	22,380000	52,335000
2,963303	352,942070	50,412	0,011808	22,380000	52,335000
2,961536	350,260027	50,462	0,010687	22,380000	52,335000
2,959938	349,689976	50,512	0,010449	22,380000	52,335000
2,958298	347,885205	50,562	0,009694	22,380000	52,335000
2,956612	346,580396	50,612	0,009149	22,380000	52,335000
2,954915	343,905362	50,663	0,008031	22,380000	52,335000
2,953210	343,383205	50,714	0,007812	22,380000	52,335000
2,951590	340,914932	50,764	0,006781	22,380000	52,335000
2,949957	340,131112	50,815	0,006453	22,380000	52,335000
2,948247	337,527334	50,865	0,005365	22,380000	52,335000
2,946592	336,744683	50,916	0,005038	22,370000	52,345000
2,944964	334,932902	50,968	0,004280	22,370000	52,345000
2,943313	333,950499	51,018	0,003870	22,370000	52,345000
2,941577	330,690229	51,068	0,002507	22,370000	52,345000
2,939922	330,018550	51,119	0,002226	22,370000	52,345000
2,938258	327,209181	51,169	0,001052	22,370000	52,345000
2,936689	326,181220	51,220	0,000622	22,370000	52,345000
2,934959	325,919557	51,270	0,000513	22,370000	52,345000
2,933253	322,619570	51,320	-0,000867	22,370000	52,345000
2,931537	321,029736	51,374	-0,001531	22,370000	52,345000
2,929921	321,099824	51,424	-0,001502	22,370000	52,345000
2,928306	317,832545	51,475	-0,002868	22,370000	52,345000
2,926660	317,713395	51,526	-0,002917	22,370000	52,345000
2,924963	316,352516	51,576	-0,003486	22,370000	52,345000
2,923309	314,555921	51,627	-0,004237	22,370000	52,345000
2,921570	313,052529	51,678	-0,004866	22,370000	52,345000
2,919924	311,620393	51,729	-0,005464	22,370000	52,345000
2,918293	309,475693	51,780	-0,006361	22,370000	52,345000
2,916569	308,462919	51,830	-0,006784	22,370000	52,345000
2,914926	305,416417	51,880	-0,008058	22,370000	52,345000
2,913281	305,116206	51,930	-0,008183	22,370000	52,345000
2,911658	303,541558	51,980	-0,008841	22,370000	52,345000
2,909915	302,315014	52,030	-0,009354	22,370000	52,345000
2,908267	299,323415	52,080	-0,010604	22,370000	52,345000
2,906617	298,840975	52,130	-0,010806	22,370000	52,345000
2,904968	297,337582	52,180	-0,011435	22,370000	52,345000
2,903281	295,976703	52,230	-0,012003	22,370000	52,345000
2,901604	292,850768	52,280	-0,013310	22,370000	52,345000
2,900007	290,817042	52,331	-0,014160	22,370000	52,345000
2,898251	290,120832	52,381	-0,014451	22,370000	52,345000
2,896625	287,707461	52,431	-0,015460	22,370000	52,345000
2,894938	287,288100	52,482	-0,015635	22,370000	52,345000
2,893288	284,495084	52,532	-0,016803	22,370000	52,345000
2,891628	284,281315	52,582	-0,016892	22,370000	52,345000
2,889953	281,360973	52,632	-0,018113	22,370000	52,345000
2,888312	281,424052	52,682	-0,018086	22,370000	52,345000
2,886665	278,385728	52,732	-0,019356	22,370000	52,345000
2,884953	277,856562	52,782	-0,019578	22,370000	52,345000
2,883336	275,102095	52,832	-0,020729	22,370000	52,345000
2,881582	273,812472	52,882	-0,021268	22,370000	52,345000
2,879955	273,495907	52,932	-0,021400	22,380000	52,335000
2,878287	270,916660	52,983	-0,022479	22,380000	52,335000
2,876591	270,631635	53,033	-0,022598	22,380000	52,335000
2,874955	268,717059	53,084	-0,023398	22,380000	52,335000
2,873264	267,205489	53,140	-0,024030	22,380000	52,335000
2,871559	265,471974	53,190	-0,024754	22,380000	52,335000
2,869978	263,937042	53,240	-0,025396	22,380000	52,335000
2,868259	262,314500	53,290	-0,026074	22,380000	52,335000
2,866641	260,779568	53,340	-0,026716	22,380000	52,335000
2,864895	259,339255	53,390	-0,027318	22,380000	52,335000
2,863323	256,957424	53,440	-0,028313	22,380000	52,335000
2,861644	254,346638	53,491	-0,029405	22,380000	52,335000
2,859939	253,856020	53,543	-0,029610	22,380000	52,335000
2,858292	251,134261	53,593	-0,030748	22,380000	52,335000
2,856663	251,260420	53,643	-0,030695	22,380000	52,335000
2,854983	247,945247	53,693	-0,032081	22,380000	52,335000
2,853253	247,295763	53,743	-0,032352	22,380000	52,335000
2,851587	246,337891	53,793	-0,032752	22,380000	52,335000
2,849981	244,756233	53,843	-0,033414	22,380000	52,335000
2,848265	243,213124	53,894	-0,034059	22,380000	52,335000
2,846629	241,812528	53,946	-0,034644	22,380000	52,335000
2,844937	239,968040	53,996	-0,035415	22,380000	52,335000
2,843308	238,457639	54,046	-0,036046	22,380000	52,335000
2,841614	237,191378	54,097	-0,036576	22,380000	52,335000
2,839941	235,315350	54,147	-0,037360	22,380000	52,335000
2,838339	234,002364	54,197	-0,037909	22,380000	52,335000
2,836622	232,197593	54,248	-0,038663	22,380000	52,335000
2,834981	230,773634	54,298	-0,039258	22,380000	52,335000
2,833332	227,616160	54,348	-0,040578	22,380000	52,335000
2,831683	227,710779	54,398	-0,040539	22,380000	52,335000
2,829970	224,506579	54,449	-0,041878	22,380000	52,335000
2,828321	224,070864	54,499	-0,042060	22,380000	52,335000
2,826594	221,405175	54,550	-0,043174	22,380000	52,335000
2,824958	220,914558	54,600	-0,043379	22,380000	52,335000
2,823295	217,803809	54,650	-0,044680	22,380000	52,335000
2,821640	218,160091	54,701	-0,044531	22,380000	52,335000
2,819974	216,356487	54,751	-0,045285	22,380000	52,335000
2,818261	213,729347	54,802	-0,046383	22,380000	52,335000
2,816611	213,318163	54,852	-0,046555	22,380000	52,335000
2,814964	211,893036	54,903	-0,047150	22,380000	52,335000
2,813265	210,089433	54,953	-0,047904	22,380000	52,305000
2,811609	208,601226	55,003	-0,048526	22,380000	52,305000
2,809894	206,940135	55,053	-0,049221	22,380000	52,305000
2,808306	204,027970	55,103	-0,050438	22,380000	52,305000
2,806682	202,112225	55,153	-0,051239	22,380000	52,305000
2,804990	201,977890	55,203	-0,051295	22,380000	52,305000
2,803286	199,406820	55,253	-0,052370	22,380000	52,305000
2,801646	198,402222	55,303	-0,052790	22,380000	52,305000
2,799903	195,909418	55,353	-0,053832	22,380000	52,305000
2,798335	196,098656	55,403	-0,053752	22,380000	52,305000
2,796645	192,720404	55,453	-0,055165	22,380000	52,305000
2,795015	192,791660	55,505	-0,055135	22,380000	52,305000
2,793341	191,462321	55,555	-0,055690	22,380000	52,305000
2,791617	189,579284	55,605	-0,056478	22,380000	52,305000
2,789947	187,671716	55,655	-0,057275	22,380000	52,305000
2,788307	186,319014	55,705	-0,057840	22,380000	52,305000
2,786572	185,004859	55,756	-0,058390	22,380000	52,305000
2,784930	183,137008	55,806	-0,059170	22,380000	52,305000
2,783365	181,847385	55,856	-0,059709	22,380000	52,305000
2,781678	179,212068	55,906	-0,060811	22,380000	52,305000
2,779927	177,219227	55,957	-0,061644	22,380000	52,305000
2,778337	176,577919	56,007	-0,061912	22,380000	52,305000
2,776680	174,733431	56,057	-0,062683	22,380000	52,305000
2,774948	173,886532	56,108	-0,063037	22,380000	52,305000
2,773300	170,864562	56,158	-0,064300	22,380000	52,305000
2,771609	170,935818	56,208	-0,064271	22,380000	52,305000
2,769984	167,983936	56,258	-0,065504	22,380000	52,305000
2,768252	167,279549	56,319	-0,065799	22,380000	52,305000
2,766657	165,966563	56,369	-0,066348	22,380000	52,305000
2,764959	163,339423	56,420	-0,067446	22,380000	52,305000
2,763336	162,856983	56,470	-0,067647	22,380000	52,305000
2,761702	161,400316	56,521	-0,068256	22,380000	52,305000
2,759995	159,810481	56,572	-0,068921	22,380000	52,305000
2,758287	157,958984	56,622	-0,069695	22,380000	52,305000
2,756674	156,376159	56,672	-0,070356	22,380000	52,305000
2,755013	154,453405	56,722	-0,071160	22,380000	52,305000
2,753303	153,298118	56,772	-0,071643	22,380000	52,305000
2,751641	151,073985	56,822	-0,072573	22,380000	52,305000
2,750036	150,218909	56,872	-0,072930	22,380000	52,305000
2,748286	147,972581	56,922	-0,073869	22,390000	52,335000
2,746635	146,864020	56,972	-0,074333	22,390000	52,335000
2,744956	144,767214	57,022	-0,075209	22,390000	52,335000
2,743285	142,290763	57,072	-0,076244	22,390000	52,335000
2,741656	142,133065	57,122	-0,076310	22,390000	52,335000
2,739969	138,911343	57,172	-0,077657	22,390000	52,335000
2,738298	138,713928	57,222	-0,077739	22,390000	52,335000
2,736586	137,613543	57,272	-0,078199	22,390000	52,335000
2,734936	135,715320	57,322	-0,078993	22,390000	52,335000
2,733304	134,377804	57,372	-0,079552	22,390000	52,335000
2,731645	132,209741	57,422	-0,080458	22,390000	52,335000
2,730006	131,077817	57,473	-0,080931	22,390000	52,335000
2,728280	129,313930	57,523	-0,081668	22,390000	52,335000
2,726648	128,055846	57,574	-0,082194	22,390000	52,335000
2,724915	126,480030	57,626	-0,082853	22,390000	52,335000
2,723288	125,016354	57,676	-0,083465	22,390000	52,335000
2,721611	123,315547	57,726	-0,084176	22,390000	52,335000
2,719999	121,518952	57,776	-0,084927	22,390000	52,335000
2,718301	118,386009	57,826	-0,086236	22,390000	52,335000
2,716627	116,486618	57,877	-0,087030	22,390000	52,335000
2,714952	116,969058	57,927	-0,086829	22,390000	52,335000
2,713263	114,358272	57,978	-0,087920	22,390000	52,335000
2,711706	113,559267	58,028	-0,088254	22,390000	52,335000
2,709931	110,915773	58,079	-0,089359	22,390000	52,335000
2,708279	110,353899	58,129	-0,089594	22,390000	52,335000
2,706622	108,976665	58,179	-0,090169	22,390000	52,335000
2,705007	107,101805	58,230	-0,090953	22,390000	52,335000
2,703299	105,328574	58,280	-0,091694	22,390000	52,335000
2,701639	104,323976	58,330	-0,092114	22,390000	52,335000
2,699915	102,290249	58,380	-0,092964	22,390000	52,335000
2,698295	101,071882	58,430	-0,093474	22,390000	52,335000
2,696638	99,545127	58,480	-0,094112	22,390000	52,335000
2,695038	97,945948	58,530	-0,094780	22,390000	52,335000
2,693278	96,268503	58,581	-0,095481	22,390000	52,335000
2,691648	94,995234	58,631	-0,096014	22,390000	52,335000
2,689997	92,653119	58,681	-0,096993	22,390000	52,335000
2,688274	89,938369	58,731	-0,098127	22,390000	52,335000
2,686695	89,756140	58,782	-0,098204	22,390000	52,335000
2,684958	86,868505	58,832	-0,099411	22,390000	52,335000
2,683376	86,654736	58,883	-0,099500	22,390000	52,335000
2,681682	85,365113	58,933	-0,100039	22,380000	52,320000
2,679979	83,442359	58,984	-0,100843	22,380000	52,320000
2,678283	80,458938	59,034	-0,102090	22,380000	52,320000
2,676662	80,419221	59,085	-0,102106	22,380000	52,320000
2,675027	77,293286	59,135	-0,103413	22,380000	52,320000
2,673284	77,364543	59,185	-0,103383	22,380000	52,320000
2,671662	74,485085	59,235	-0,104587	22,380000	52,320000
2,669999	74,096096	59,285	-0,104750	22,380000	52,320000
2,668261	71,525026	59,336	-0,105824	22,380000	52,320000
2,666636	71,342797	59,386	-0,105900	22,380000	52,320000
2,664953	68,319658	59,436	-0,107164	22,380000	52,320000
2,663316	66,159773	59,487	-0,108067	22,380000	52,320000
2,661670	64,901690	59,537	-0,108593	22,380000	52,320000
2,659968	64,656381	59,587	-0,108695	22,380000	52,320000
2,658264	62,678725	59,638	-0,109522	22,380000	52,320000
2,656644	59,607693	59,689	-0,110806	22,380000	52,320000
2,654957	59,703480	59,739	-0,110766	22,380000	52,320000
2,653282	56,688519	59,789	-0,112026	22,380000	52,320000
2,651602	56,023849	59,839	-0,112304	22,380000	52,320000
2,649965	53,428248	59,889	-0,113389	22,380000	52,320000
2,648275	53,428248	59,947	-0,113389	22,380000	52,320000
2,646689	51,101320	59,998	-0,114361	22,380000	52,320000
2,644904	50,096722	60,049	-0,114781	22,380000	52,320000
2,643277	47,999916	60,099	-0,115658	22,380000	52,320000
2,641640	47,042044	60,150	-0,116058	22,380000	52,320000
2,639983	44,739646	60,200	-0,117021	22,380000	52,320000
2,638284	43,844853	60,251	-0,117395	22,380000	52,320000
2,636652	41,328686	60,301	-0,118446	22,380000	52,320000
2,634948	40,435061	60,352	-0,118820	22,380000	52,320000
2,633357	38,733085	60,402	-0,119531	22,380000	52,320000
2,631614	35,979787	60,452	-0,120682	22,380000	52,320000
2,629991	35,457629	60,502	-0,120900	22,380000	52,320000
2,628327	34,113104	60,552	-0,121462	22,380000	52,320000
2,626691	32,577004	60,602	-0,122104	22,380000	52,320000
2,624941	31,065434	60,653	-0,122736	22,380000	52,320000
2,623374	28,802753	60,704	-0,123682	22,380000	52,320000
2,621584	25,827508	60,754	-0,124926	22,380000	52,320000
2,619931	26,238692	60,804	-0,124754	22,380000	52,320000
2,618315	23,145466	60,854	-0,126047	22,380000	52,320000
2,616627	22,883803	60,905	-0,126156	22,380000	52,320000
2,615002	19,979815	60,955	-0,127370	22,380000	52,320000
2,613307	19,702966	61,005	-0,127486	22,380000	52,320000
2,611691	16,292006	61,056	-0,128912	22,380000	52,320000
2,610002	16,474236	61,119	-0,128835	22,380000	52,320000
2,608281	12,882214	61,169	-0,130337	22,380000	52,320000
2,606679	11,584414	61,219	-0,130879	22,380000	52,320000
2,604984	10,041305	61,269	-0,131524	22,380000	52,320000
2,603297	9,653484	61,319	-0,131687	22,380000	52,320000
2,601630	6,575443	61,369	-0,132973	22,380000	52,320000
2,600001	6,321957	61,419	-0,133079	22,380000	52,320000
2,598313	4,834919	61,469	-0,133701	22,380000	52,320000
2,596641	2,587423	61,519	-0,134640	22,380000	52,320000
2,594981	2,254504	61,569	-0,134779	22,380000	52,320000
2,593375	-0,047894	61,619	-0,135742	22,380000	52,320000
2,591609	-1,219535	61,669	-0,136231	22,380000	52,320000
2,589965	-3,117758	61,719	-0,137025	22,380000	52,320000
